%OpenBCI Raw EEG Data
%
%Sample Rate = 250.0 Hz
%First Column = SampleIndex
%Other Columns = EEG data in microvolts followed by Accel Data (in G) interleaved with Aux Data
0, 0,00, -59645,45, 73307,15, 0,00, 0,00, 0,00, 0,00, 0,00, -0,00, -0,02, 0,51
1, 0,00, 16409,06, 13788,48, 0,00, 0,00, 0,00, 0,00, 0,00, -0,00, -0,02, 0,51
2, 0,00, 66612,22, -13659,84, 0,00, 0,00, 0,00, 0,00, 0,00, -0,00, -0,02, 1,01
3, 0,00, 15963,21, 34220,63, 0,00, 0,00, 0,00, 0,00, 0,00, -0,00, -0,02, 1,01
4, 0,00, -61792,25, 87934,55, 0,00, 0,00, 0,00, 0,00, 0,00, -0,00, -0,02, 1,01
5, 0,00, -60168,30, 73819,07, 0,00, 0,00, 0,00, 0,00, 0,00, -0,00, -0,02, 1,01
6, 0,00, 15623,44, 14296,80, 0,00, 0,00, 0,00, 0,00, 0,00, -0,00, -0,02, 1,01
7, 0,00, 66580,21, -13859,18, 0,00, 0,00, 0,00, 0,00, 0,00, 0,00, -0,02, 1,01
8, 0,00, 16708,08, 33546,70, 0,00, 0,00, 0,00, 0,00, 0,00, 0,00, -0,02, 1,01
9, 0,00, -61157,48, 87481,26, 0,00, 0,00, 0,00, 0,00, 0,00, 0,00, -0,02, 1,01
10, 0,00, -60617,97, 74268,34, 0,00, 0,00, 0,00, 0,00, 0,00, 0,00, -0,02, 1,01
11, 0,00, 14883,13, 14868,27, 0,00, 0,00, 0,00, 0,00, 0,00, 0,00, -0,02, 1,01
12, 0,00, 66593,06, -13953,32, 0,00, 0,00, 0,00, 0,00, 0,00, 0,01, -0,02, 1,01
13, 0,00, 17349,07, 33063,30, 0,00, 0,00, 0,00, 0,00, 0,00, 0,01, -0,02, 1,01
14, 0,00, -60694,37, 87199,61, 0,00, 0,00, 0,00, 0,00, 0,00, 0,01, -0,02, 1,01
15, 0,00, -61172,41, 74722,26, 0,00, 0,00, 0,00, 0,00, 0,00, 0,01, -0,02, 1,01
16, 0,00, 14046,30, 15322,34, 0,00, 0,00, 0,00, 0,00, 0,00, 0,01, -0,02, 1,01
17, 0,00, 66449,09, -14106,32, 0,00, 0,00, 0,00, 0,00, 0,00, 0,01, -0,02, 1,01
18, 0,00, 17995,21, 32537,52, 0,00, 0,00, 0,00, 0,00, 0,00, 0,01, -0,02, 1,01
19, 0,00, -60295,24, 87069,16, 0,00, 0,00, 0,00, 0,00, 0,00, 0,01, -0,02, 1,01
20, 0,00, -61771,14, 75305,17, 0,00, 0,00, 0,00, 0,00, 0,00, 0,01, -0,02, 1,01
21, 0,00, 13167,64, 15910,71, 0,00, 0,00, 0,00, 0,00, 0,00, 0,01, -0,02, 1,01
22, 0,00, 66340,49, -14184,80, 0,00, 0,00, 0,00, 0,00, 0,00, 0,01, -0,02, 1,01
23, 0,00, 18597,72, 32012,50, 0,00, 0,00, 0,00, 0,00, 0,00, 0,01, -0,02, 1,01
24, 0,00, -59676,45, 86655,09, 0,00, 0,00, 0,00, 0,00, 0,00, 0,01, -0,02, 1,01
25, 0,00, -62222,72, 75788,17, 0,00, 0,00, 0,00, 0,00, 0,00, 0,01, -0,02, 1,01
26, 0,00, 12349,88, 16496,46, 0,00, 0,00, 0,00, 0,00, 0,00, 0,01, -0,02, 1,01
27, 0,00, 66247,44, -14273,18, 0,00, 0,00, 0,00, 0,00, 0,00, 0,01, -0,03, 1,00
28, 0,00, 19453,97, 31368,17, 0,00, 0,00, 0,00, 0,00, 0,00, 0,01, -0,03, 1,00
29, 0,00, -59127,11, 86423,76, 0,00, 0,00, 0,00, 0,00, 0,00, 0,01, -0,03, 1,00
30, 0,00, -62644,47, 76245,06, 0,00, 0,00, 0,00, 0,00, 0,00, 0,01, -0,03, 1,00
31, 0,00, 11716,92, 16947,79, 0,00, 0,00, 0,00, 0,00, 0,00, 0,01, -0,03, 1,00
32, 0,00, 66337,65, -14434,89, 0,00, 0,00, 0,00, 0,00, 0,00, 0,01, -0,02, 1,01
33, 0,00, 20268,99, 30762,26, 0,00, 0,00, 0,00, 0,00, 0,00, 0,01, -0,02, 1,01
34, 0,00, -58428,04, 86066,88, 0,00, 0,00, 0,00, 0,00, 0,00, 0,01, -0,02, 1,01
35, 0,00, -62938,73, 76673,48, 0,00, 0,00, 0,00, 0,00, 0,00, 0,01, -0,02, 1,01
36, 0,00, 11088,16, 17494,75, 0,00, 0,00, 0,00, 0,00, 0,00, 0,01, -0,02, 1,01
37, 0,00, 66373,03, -14508,45, 0,00, 0,00, 0,00, 0,00, 0,00, 0,00, -0,02, 1,00
38, 0,00, 21065,09, 30191,04, 0,00, 0,00, 0,00, 0,00, 0,00, 0,00, -0,02, 1,00
39, 0,00, -57764,10, 85706,73, 0,00, 0,00, 0,00, 0,00, 0,00, 0,00, -0,02, 1,00
40, 0,00, -63361,63, 77126,84, 0,00, 0,00, 0,00, 0,00, 0,00, 0,00, -0,02, 1,00
41, 0,00, 10408,51, 17935,49, 0,00, 0,00, 0,00, 0,00, 0,00, 0,00, -0,02, 1,00
42, 0,00, 66360,88, -14608,12, 0,00, 0,00, 0,00, 0,00, 0,00, -0,00, -0,02, 1,01
43, 0,00, 21927,13, 29600,66, 0,00, 0,00, 0,00, 0,00, 0,00, -0,00, -0,02, 1,01
44, 0,00, -56993,79, 85314,02, 0,00, 0,00, 0,00, 0,00, 0,00, -0,00, -0,02, 1,01
45, 0,00, -63616,77, 77510,52, 0,00, 0,00, 0,00, 0,00, 0,00, -0,00, -0,02, 1,01
46, 0,00, 9748,00, 18465,69, 0,00, 0,00, 0,00, 0,00, 0,00, -0,00, -0,02, 1,01
47, 0,00, 66336,13, -14755,59, 0,00, 0,00, 0,00, 0,00, 0,00, -0,00, -0,02, 1,01
48, 0,00, 22639,05, 28992,27, 0,00, 0,00, 0,00, 0,00, 0,00, -0,00, -0,02, 1,01
49, 0,00, -56452,21, 85003,41, 0,00, 0,00, 0,00, 0,00, 0,00, -0,00, -0,02, 1,01
50, 0,00, -63968,95, 77916,08, 0,00, 0,00, 0,00, 0,00, 0,00, -0,00, -0,02, 1,01
51, 0,00, 9084,40, 19000,75, 0,00, 0,00, 0,00, 0,00, 0,00, -0,00, -0,02, 1,01
52, 0,00, 66286,80, -14719,90, 0,00, 0,00, 0,00, 0,00, 0,00, -0,00, -0,03, 1,01
53, 0,00, 23319,96, 28478,13, 0,00, 0,00, 0,00, 0,00, 0,00, -0,00, -0,03, 1,01
54, 0,00, -55845,65, 84576,41, 0,00, 0,00, 0,00, 0,00, 0,00, -0,00, -0,03, 1,01
55, 0,00, -64335,05, 78297,89, 0,00, 0,00, 0,00, 0,00, 0,00, -0,00, -0,03, 1,01
56, 0,00, 8461,01, 19468,06, 0,00, 0,00, 0,00, 0,00, 0,00, -0,00, -0,03, 1,01
57, 0,00, 66337,34, -14844,89, 0,00, 0,00, 0,00, 0,00, 0,00, 0,00, -0,02, 1,00
58, 0,00, 24124,04, 27814,15, 0,00, 0,00, 0,00, 0,00, 0,00, 0,00, -0,02, 1,00
59, 0,00, -55231,05, 84218,27, 0,00, 0,00, 0,00, 0,00, 0,00, 0,00, -0,02, 1,00
60, 0,00, -64686,24, 78714,66, 0,00, 0,00, 0,00, 0,00, 0,00, 0,00, -0,02, 1,00
61, 0,00, 7765,62, 19946,07, 0,00, 0,00, 0,00, 0,00, 0,00, 0,00, -0,02, 1,00
62, 0,00, 66258,21, -14917,82, 0,00, 0,00, 0,00, 0,00, 0,00, 0,00, -0,02, 1,01
63, 0,00, 24892,27, 27303,28, 0,00, 0,00, 0,00, 0,00, 0,00, 0,00, -0,02, 1,01
64, 0,00, -54552,00, 83856,61, 0,00, 0,00, 0,00, 0,00, 0,00, 0,00, -0,02, 1,01
65, 0,00, -64943,84, 79065,90, 0,00, 0,00, 0,00, 0,00, 0,00, 0,00, -0,02, 1,01
66, 0,00, 7208,04, 20389,44, 0,00, 0,00, 0,00, 0,00, 0,00, 0,00, -0,02, 1,01
67, 0,00, 66281,32, -14965,88, 0,00, 0,00, 0,00, 0,00, 0,00, 0,01, -0,02, 1,00
68, 0,00, 25619,17, 26765,63, 0,00, 0,00, 0,00, 0,00, 0,00, 0,01, -0,02, 1,00
69, 0,00, -54002,17, 83574,58, 0,00, 0,00, 0,00, 0,00, 0,00, 0,01, -0,02, 1,00
70, 0,00, -65338,21, 79485,80, 0,00, 0,00, 0,00, 0,00, 0,00, 0,01, -0,02, 1,00
71, 0,00, 6497,96, 20948,59, 0,00, 0,00, 0,00, 0,00, 0,00, 0,01, -0,02, 1,00
72, 0,00, 66265,63, -15039,42, 0,00, 0,00, 0,00, 0,00, 0,00, 0,00, -0,02, 1,01
73, 0,00, 26426,00, 26164,77, 0,00, 0,00, 0,00, 0,00, 0,00, 0,00, -0,02, 1,01
74, 0,00, -53471,03, 83344,49, 0,00, 0,00, 0,00, 0,00, 0,00, 0,00, -0,02, 1,01
75, 0,00, -65578,67, 79771,90, 0,00, 0,00, 0,00, 0,00, 0,00, 0,00, -0,02, 1,01
76, 0,00, 5897,19, 21334,98, 0,00, 0,00, 0,00, 0,00, 0,00, 0,00, -0,02, 1,01
77, 0,00, 66137,98, -15091,70, 0,00, 0,00, 0,00, 0,00, 0,00, 0,00, -0,02, 1,01
78, 0,00, 27148,67, 25536,76, 0,00, 0,00, 0,00, 0,00, 0,00, 0,00, -0,02, 1,01
79, 0,00, -52693,36, 82779,68, 0,00, 0,00, 0,00, 0,00, 0,00, 0,00, -0,02, 1,01
80, 0,00, -65978,59, 80171,44, 0,00, 0,00, 0,00, 0,00, 0,00, 0,00, -0,02, 1,01
81, 0,00, 5183,93, 21890,87, 0,00, 0,00, 0,00, 0,00, 0,00, 0,00, -0,02, 1,01
82, 0,00, 66066,79, -15096,37, 0,00, 0,00, 0,00, 0,00, 0,00, 0,00, -0,02, 1,01
83, 0,00, 27791,55, 25023,92, 0,00, 0,00, 0,00, 0,00, 0,00, 0,00, -0,02, 1,01
84, 0,00, -52381,02, 82602,19, 0,00, 0,00, 0,00, 0,00, 0,00, 0,00, -0,02, 1,01
85, 0,00, -66390,71, 80507,25, 0,00, 0,00, 0,00, 0,00, 0,00, 0,00, -0,02, 1,01
86, 0,00, 4500,70, 22342,02, 0,00, 0,00, 0,00, 0,00, 0,00, 0,00, -0,02, 1,01
87, 0,00, 65946,12, -15075,22, 0,00, 0,00, 0,00, 0,00, 0,00, 0,00, -0,02, 1,01
88, 0,00, 28497,69, 24460,56, 0,00, 0,00, 0,00, 0,00, 0,00, 0,00, -0,02, 1,01
89, 0,00, -51390,95, 81899,27, 0,00, 0,00, 0,00, 0,00, 0,00, 0,00, -0,02, 1,01
90, 0,00, -66691,28, 80938,50, 0,00, 0,00, 0,00, 0,00, 0,00, 0,00, -0,02, 1,01
91, 0,00, 3681,51, 22978,17, 0,00, 0,00, 0,00, 0,00, 0,00, 0,00, -0,02, 1,01
92, 0,00, 65664,69, -14979,29, 0,00, 0,00, 0,00, 0,00, 0,00, 0,01, -0,02, 1,02
93, 0,00, 29062,03, 23973,14, 0,00, 0,00, 0,00, 0,00, 0,00, 0,01, -0,02, 1,02
94, 0,00, -51118,91, 81717,62, 0,00, 0,00, 0,00, 0,00, 0,00, 0,01, -0,02, 1,02
95, 0,00, -67165,36, 81269,82, 0,00, 0,00, 0,00, 0,00, 0,00, 0,01, -0,02, 1,02
96, 0,00, 2946,09, 23437,52, 0,00, 0,00, 0,00, 0,00, 0,00, 0,01, -0,02, 1,02
97, 0,00, 65510,01, -14998,40, 0,00, 0,00, 0,00, 0,00, 0,00, 0,00, -0,02, 1,02
98, 0,00, 29699,57, 23397,96, 0,00, 0,00, 0,00, 0,00, 0,00, 0,00, -0,02, 1,02
99, 0,00, -50240,17, 81057,33, 0,00, 0,00, 0,00, 0,00, 0,00, 0,00, -0,02, 1,02
100, 0,00, -67413,44, 81586,28, 0,00, 0,00, 0,00, 0,00, 0,00, 0,00, -0,02, 1,02
101, 0,00, 2163,83, 24004,03, 0,00, 0,00, 0,00, 0,00, 0,00, 0,00, -0,02, 1,02
102, 0,00, 65277,64, -14936,69, 0,00, 0,00, 0,00, 0,00, 0,00, -0,00, -0,02, 1,02
103, 0,00, 30361,71, 22868,70, 0,00, 0,00, 0,00, 0,00, 0,00, -0,00, -0,02, 1,02
104, 0,00, -49742,11, 80769,12, 0,00, 0,00, 0,00, 0,00, 0,00, -0,00, -0,02, 1,02
105, 0,00, -67833,54, 81992,90, 0,00, 0,00, 0,00, 0,00, 0,00, -0,00, -0,02, 1,02
106, 0,00, 1407,82, 24539,42, 0,00, 0,00, 0,00, 0,00, 0,00, -0,00, -0,02, 1,02
107, 0,00, 65013,71, -14823,61, 0,00, 0,00, 0,00, 0,00, 0,00, 0,00, -0,02, 1,02
108, 0,00, 30810,87, 22431,85, 0,00, 0,00, 0,00, 0,00, 0,00, 0,00, -0,02, 1,02
109, 0,00, -49285,46, 80400,25, 0,00, 0,00, 0,00, 0,00, 0,00, 0,00, -0,02, 1,02
110, 0,00, -68296,55, 82400,22, 0,00, 0,00, 0,00, 0,00, 0,00, 0,00, -0,02, 1,02
111, 0,00, 617,24, 25100,31, 0,00, 0,00, 0,00, 0,00, 0,00, 0,00, -0,02, 1,02
112, 0,00, 64760,76, -14765,36, 0,00, 0,00, 0,00, 0,00, 0,00, 0,00, -0,02, 1,01
113, 0,00, 31465,02, 21887,52, 0,00, 0,00, 0,00, 0,00, 0,00, 0,00, -0,02, 1,01
114, 0,00, -48654,52, 79942,15, 0,00, 0,00, 0,00, 0,00, 0,00, 0,00, -0,02, 1,01
115, 0,00, -68672,38, 82753,17, 0,00, 0,00, 0,00, 0,00, 0,00, 0,00, -0,02, 1,01
116, 0,00, -47,32, 25625,20, 0,00, 0,00, 0,00, 0,00, 0,00, 0,00, -0,02, 1,01
117, 0,00, 64601,43, -14728,99, 0,00, 0,00, 0,00, 0,00, 0,00, 0,00, -0,02, 1,01
118, 0,00, 32159,31, 21275,04, 0,00, 0,00, 0,00, 0,00, 0,00, 0,00, -0,02, 1,01
119, 0,00, -47814,80, 79410,47, 0,00, 0,00, 0,00, 0,00, 0,00, 0,00, -0,02, 1,01
120, 0,00, -68822,00, 83025,57, 0,00, 0,00, 0,00, 0,00, 0,00, 0,00, -0,02, 1,01
121, 0,00, -761,43, 26138,49, 0,00, 0,00, 0,00, 0,00, 0,00, 0,00, -0,02, 1,01
122, 0,00, 64402,82, -14672,82, 0,00, 0,00, 0,00, 0,00, 0,00, 0,00, -0,02, 1,01
123, 0,00, 32830,82, 20710,54, 0,00, 0,00, 0,00, 0,00, 0,00, 0,00, -0,02, 1,01
124, 0,00, -47212,14, 78961,80, 0,00, 0,00, 0,00, 0,00, 0,00, 0,00, -0,02, 1,01
125, 0,00, -69098,05, 83293,05, 0,00, 0,00, 0,00, 0,00, 0,00, 0,00, -0,02, 1,01
126, 0,00, -1435,36, 26633,85, 0,00, 0,00, 0,00, 0,00, 0,00, 0,00, -0,02, 1,01
127, 0,00, 64200,45, -14613,28, 0,00, 0,00, 0,00, 0,00, 0,00, 0,00, -0,03, 1,01
128, 0,00, 33495,00, 20176,83, 0,00, 0,00, 0,00, 0,00, 0,00, 0,00, -0,03, 1,01
129, 0,00, -46616,48, 78593,83, 0,00, 0,00, 0,00, 0,00, 0,00, 0,00, -0,03, 1,01
130, 0,00, -69410,55, 83644,16, 0,00, 0,00, 0,00, 0,00, 0,00, 0,00, -0,03, 1,01
131, 0,00, -2160,90, 27130,52, 0,00, 0,00, 0,00, 0,00, 0,00, 0,00, -0,03, 1,01
132, 0,00, 63999,50, -14580,31, 0,00, 0,00, 0,00, 0,00, 0,00, -0,00, -0,03, 1,00
133, 0,00, 34231,20, 19601,99, 0,00, 0,00, 0,00, 0,00, 0,00, -0,00, -0,03, 1,00
134, 0,00, -45917,79, 78203,25, 0,00, 0,00, 0,00, 0,00, 0,00, -0,00, -0,03, 1,00
135, 0,00, -69656,48, 83992,00, 0,00, 0,00, 0,00, 0,00, 0,00, -0,00, -0,03, 1,00
136, 0,00, -2850,83, 27664,42, 0,00, 0,00, 0,00, 0,00, 0,00, -0,00, -0,03, 1,00
137, 0,00, 63681,77, -14440,92, 0,00, 0,00, 0,00, 0,00, 0,00, 0,00, -0,03, 1,00
138, 0,00, 34778,53, 19169,44, 0,00, 0,00, 0,00, 0,00, 0,00, 0,00, -0,03, 1,00
139, 0,00, -45198,29, 77746,02, 0,00, 0,00, 0,00, 0,00, 0,00, 0,00, -0,03, 1,00
140, 0,00, -69896,52, 84310,53, 0,00, 0,00, 0,00, 0,00, 0,00, 0,00, -0,03, 1,00
141, 0,00, -3531,89, 28198,29, 0,00, 0,00, 0,00, 0,00, 0,00, 0,00, -0,03, 1,00
142, 0,00, 63531,37, -14360,86, 0,00, 0,00, 0,00, 0,00, 0,00, 0,00, -0,02, 1,01
143, 0,00, 35542,11, 18561,36, 0,00, 0,00, 0,00, 0,00, 0,00, 0,00, -0,02, 1,01
144, 0,00, -44431,22, 77244,99, 0,00, 0,00, 0,00, 0,00, 0,00, 0,00, -0,02, 1,01
145, 0,00, -70091,98, 84561,54, 0,00, 0,00, 0,00, 0,00, 0,00, 0,00, -0,02, 1,01
146, 0,00, -4215,43, 28676,62, 0,00, 0,00, 0,00, 0,00, 0,00, 0,00, -0,02, 1,01
147, 0,00, 63299,22, -14331,80, 0,00, 0,00, 0,00, 0,00, 0,00, 0,00, -0,03, 1,01
148, 0,00, 36135,39, 18038,15, 0,00, 0,00, 0,00, 0,00, 0,00, 0,00, -0,03, 1,01
149, 0,00, -43709,59, 76771,16, 0,00, 0,00, 0,00, 0,00, 0,00, 0,00, -0,03, 1,01
150, 0,00, -70258,10, 84840,76, 0,00, 0,00, 0,00, 0,00, 0,00, 0,00, -0,03, 1,01
151, 0,00, -4834,44, 29167,66, 0,00, 0,00, 0,00, 0,00, 0,00, 0,00, -0,03, 1,01
152, 0,00, 63166,72, -14301,76, 0,00, 0,00, 0,00, 0,00, 0,00, 0,00, -0,03, 1,01
153, 0,00, 36908,05, 17411,52, 0,00, 0,00, 0,00, 0,00, 0,00, 0,00, -0,03, 1,01
154, 0,00, -43010,61, 76351,61, 0,00, 0,00, 0,00, 0,00, 0,00, 0,00, -0,03, 1,01
155, 0,00, -70481,87, 85190,27, 0,00, 0,00, 0,00, 0,00, 0,00, 0,00, -0,03, 1,01
156, 0,00, -5529,53, 29693,02, 0,00, 0,00, 0,00, 0,00, 0,00, 0,00, -0,03, 1,01
157, 0,00, 62751,43, -14149,64, 0,00, 0,00, 0,00, 0,00, 0,00, 0,00, -0,03, 1,01
158, 0,00, 37430,59, 16884,60, 0,00, 0,00, 0,00, 0,00, 0,00, 0,00, -0,03, 1,01
159, 0,00, -42487,78, 75932,38, 0,00, 0,00, 0,00, 0,00, 0,00, 0,00, -0,03, 1,01
160, 0,00, -70659,49, 85347,97, 0,00, 0,00, 0,00, 0,00, 0,00, 0,00, -0,03, 1,01
161, 0,00, -6065,39, 30055,14, 0,00, 0,00, 0,00, 0,00, 0,00, 0,00, -0,03, 1,01
162, 0,00, 62652,63, -14138,80, 0,00, 0,00, 0,00, 0,00, 0,00, 0,00, -0,03, 1,01
163, 0,00, 38253,67, 16273,34, 0,00, 0,00, 0,00, 0,00, 0,00, 0,00, -0,02, 1,01
164, 0,00, -41522,10, 75366,99, 0,00, 0,00, 0,00, 0,00, 0,00, 0,00, -0,02, 1,01
165, 0,00, -70821,70, 85729,98, 0,00, 0,00, 0,00, 0,00, 0,00, 0,00, -0,02, 1,01
166, 0,00, -6771,04, 30651,62, 0,00, 0,00, 0,00, 0,00, 0,00, 0,00, -0,02, 1,01
167, 0,00, 62386,04, -14056,99, 0,00, 0,00, 0,00, 0,00, 0,00, 0,00, -0,02, 1,01
168, 0,00, 38876,81, 15723,20, 0,00, 0,00, 0,00, 0,00, 0,00, 0,01, -0,02, 1,01
169, 0,00, -40941,60, 75075,73, 0,00, 0,00, 0,00, 0,00, 0,00, 0,01, -0,02, 1,01
170, 0,00, -71029,88, 86059,48, 0,00, 0,00, 0,00, 0,00, 0,00, 0,01, -0,02, 1,01
171, 0,00, -7459,78, 31176,23, 0,00, 0,00, 0,00, 0,00, 0,00, 0,01, -0,02, 1,01
172, 0,00, 62064,60, -13949,10, 0,00, 0,00, 0,00, 0,00, 0,00, 0,01, -0,02, 1,01
173, 0,00, 39487,17, 15213,09, 0,00, 0,00, 0,00, 0,00, 0,00, 0,00, -0,02, 1,00
174, 0,00, -40186,07, 74576,91, 0,00, 0,00, 0,00, 0,00, 0,00, 0,00, -0,02, 1,00
175, 0,00, -71288,70, 86322,01, 0,00, 0,00, 0,00, 0,00, 0,00, 0,00, -0,02, 1,00
176, 0,00, -8234,83, 31668,71, 0,00, 0,00, 0,00, 0,00, 0,00, 0,00, -0,02, 1,00
177, 0,00, 61802,55, -13878,96, 0,00, 0,00, 0,00, 0,00, 0,00, 0,00, -0,02, 1,00
178, 0,00, 40157,70, 14662,88, 0,00, 0,00, 0,00, 0,00, 0,00, 0,00, -0,02, 1,00
179, 0,00, -39393,50, 74065,66, 0,00, 0,00, 0,00, 0,00, 0,00, 0,00, -0,02, 1,00
180, 0,00, -71323,54, 86539,94, 0,00, 0,00, 0,00, 0,00, 0,00, 0,00, -0,02, 1,00
181, 0,00, -8815,24, 32184,19, 0,00, 0,00, 0,00, 0,00, 0,00, 0,00, -0,02, 1,00
182, 0,00, 61423,75, -13692,70, 0,00, 0,00, 0,00, 0,00, 0,00, 0,00, -0,02, 1,00
183, 0,00, 40784,94, 14120,42, 0,00, 0,00, 0,00, 0,00, 0,00, 0,00, -0,02, 1,01
184, 0,00, -38890,22, 73792,23, 0,00, 0,00, 0,00, 0,00, 0,00, 0,00, -0,02, 1,01
185, 0,00, -71615,91, 86892,27, 0,00, 0,00, 0,00, 0,00, 0,00, 0,00, -0,02, 1,01
186, 0,00, -9479,69, 32629,19, 0,00, 0,00, 0,00, 0,00, 0,00, 0,00, -0,02, 1,01
187, 0,00, 61202,34, -13695,45, 0,00, 0,00, 0,00, 0,00, 0,00, 0,00, -0,02, 1,01
188, 0,00, 41406,18, 13514,04, 0,00, 0,00, 0,00, 0,00, 0,00, 0,00, -0,02, 1,00
189, 0,00, -37949,53, 73203,10, 0,00, 0,00, 0,00, 0,00, 0,00, 0,00, -0,02, 1,00
190, 0,00, -71591,98, 87133,24, 0,00, 0,00, 0,00, 0,00, 0,00, 0,00, -0,02, 1,00
191, 0,00, -10043,73, 33130,00, 0,00, 0,00, 0,00, 0,00, 0,00, 0,00, -0,02, 1,00
192, 0,00, 61065,52, -13635,88, 0,00, 0,00, 0,00, 0,00, 0,00, 0,00, -0,02, 1,00
193, 0,00, 42238,74, 12926,71, 0,00, 0,00, 0,00, 0,00, 0,00, -0,00, -0,02, 1,01
194, 0,00, -37159,82, 72751,51, 0,00, 0,00, 0,00, 0,00, 0,00, -0,00, -0,02, 1,01
195, 0,00, -71559,76, 87265,66, 0,00, 0,00, 0,00, 0,00, 0,00, -0,00, -0,02, 1,01
196, 0,00, -10400,31, 33451,20, 0,00, 0,00, 0,00, 0,00, 0,00, -0,00, -0,02, 1,01
197, 0,00, 61022,50, -13576,76, 0,00, 0,00, 0,00, 0,00, 0,00, -0,00, -0,02, 1,01
198, 0,00, 43158,25, 12310,96, 0,00, 0,00, 0,00, 0,00, 0,00, -0,00, -0,01, 1,01
199, 0,00, -35884,92, 71995,34, 0,00, 0,00, 0,00, 0,00, 0,00, -0,00, -0,01, 1,01
200, 0,00, -71272,24, 87374,64, 0,00, 0,00, 0,00, 0,00, 0,00, -0,00, -0,01, 1,01
201, 0,00, -10675,46, 33896,51, 0,00, 0,00, 0,00, 0,00, 0,00, -0,00, -0,01, 1,01
202, 0,00, 61225,74, -13599,27, 0,00, 0,00, 0,00, 0,00, 0,00, -0,00, -0,01, 1,01
203, 0,00, 44363,20, 11548,52, 0,00, 0,00, 0,00, 0,00, 0,00, -0,00, -0,01, 1,01
204, 0,00, -34662,01, 71378,39, 0,00, 0,00, 0,00, 0,00, 0,00, -0,00, -0,01, 1,01
205, 0,00, -70957,82, 87504,87, 0,00, 0,00, 0,00, 0,00, 0,00, -0,00, -0,01, 1,01
206, 0,00, -11131,30, 34399,09, 0,00, 0,00, 0,00, 0,00, 0,00, -0,00, -0,01, 1,01
207, 0,00, 60916,68, -13380,69, 0,00, 0,00, 0,00, 0,00, 0,00, -0,00, -0,01, 1,01
208, 0,00, 45142,79, 11019,70, 0,00, 0,00, 0,00, 0,00, 0,00, 0,00, -0,02, 1,01
209, 0,00, -33249,49, 70532,16, 0,00, 0,00, 0,00, 0,00, 0,00, 0,00, -0,02, 1,01
210, 0,00, -69980,20, 87244,40, 0,00, 0,00, 0,00, 0,00, 0,00, 0,00, -0,02, 1,01
211, 0,00, -10187,01, 34262,90, 0,00, 0,00, 0,00, 0,00, 0,00, 0,00, -0,02, 1,01
212, 0,00, 62621,11, -14050,98, 0,00, 0,00, 0,00, 0,00, 0,00, 0,00, -0,02, 1,01
213, 0,00, 47834,45, 9725,98, 0,00, 0,00, 0,00, 0,00, 0,00, 0,00, -0,02, 1,01
214, 0,00, -30681,88, 69480,06, 0,00, 0,00, 0,00, 0,00, 0,00, 0,00, -0,02, 1,01
215, 0,00, -68735,44, 87174,86, 0,00, 0,00, 0,00, 0,00, 0,00, 0,00, -0,02, 1,01
216, 0,00, -9994,60, 34729,67, 0,00, 0,00, 0,00, 0,00, 0,00, 0,00, -0,02, 1,01
217, 0,00, 62693,64, -13728,06, 0,00, 0,00, 0,00, 0,00, 0,00, 0,00, -0,02, 1,01
218, 0,00, 48467,34, 9499,89, 0,00, 0,00, 0,00, 0,00, 0,00, 0,00, -0,02, 1,01
219, 0,00, -30313,66, 69457,55, 0,00, 0,00, 0,00, 0,00, 0,00, 0,00, -0,02, 1,01
220, 0,00, -69508,98, 87909,12, 0,00, 0,00, 0,00, 0,00, 0,00, 0,00, -0,02, 1,01
221, 0,00, -11544,72, 35779,02, 0,00, 0,00, 0,00, 0,00, 0,00, 0,00, -0,02, 1,01
222, 0,00, 61278,38, -12979,81, 0,00, 0,00, 0,00, 0,00, 0,00, 0,00, -0,02, 1,01
223, 0,00, 47880,18, 9554,07, 0,00, 0,00, 0,00, 0,00, 0,00, 0,00, -0,02, 1,00
224, 0,00, -30797,13, 69508,42, 0,00, 0,00, 0,00, 0,00, 0,00, 0,00, -0,02, 1,00
225, 0,00, -70801,79, 88585,86, 0,00, 0,00, 0,00, 0,00, 0,00, 0,00, -0,02, 1,00
226, 0,00, -13381,21, 36740,50, 0,00, 0,00, 0,00, 0,00, 0,00, 0,00, -0,02, 1,00
227, 0,00, 59846,10, -12423,46, 0,00, 0,00, 0,00, 0,00, 0,00, 0,00, -0,02, 1,00
228, 0,00, 47469,47, 9327,61, 0,00, 0,00, 0,00, 0,00, 0,00, 0,00, -0,02, 1,00
229, 0,00, -31071,36, 69282,80, 0,00, 0,00, 0,00, 0,00, 0,00, 0,00, -0,02, 1,00
230, 0,00, -71903,19, 89073,51, 0,00, 0,00, 0,00, 0,00, 0,00, 0,00, -0,02, 1,00
231, 0,00, -14882,37, 37427,35, 0,00, 0,00, 0,00, 0,00, 0,00, 0,00, -0,02, 1,00
232, 0,00, 58698,76, -12091,69, 0,00, 0,00, 0,00, 0,00, 0,00, 0,00, -0,02, 1,00
233, 0,00, 47304,31, 8994,10, 0,00, 0,00, 0,00, 0,00, 0,00, 0,00, -0,02, 1,00
234, 0,00, -30948,36, 68888,14, 0,00, 0,00, 0,00, 0,00, 0,00, 0,00, -0,02, 1,00
235, 0,00, -72543,88, 89335,65, 0,00, 0,00, 0,00, 0,00, 0,00, 0,00, -0,02, 1,00
236, 0,00, -16129,15, 38050,00, 0,00, 0,00, 0,00, 0,00, 0,00, 0,00, -0,02, 1,00
237, 0,00, 57836,90, -11803,38, 0,00, 0,00, 0,00, 0,00, 0,00, 0,00, -0,02, 1,00
238, 0,00, 47500,92, 8560,67, 0,00, 0,00, 0,00, 0,00, 0,00, 0,00, -0,02, 1,01
239, 0,00, -30551,73, 68459,26, 0,00, 0,00, 0,00, 0,00, 0,00, 0,00, -0,02, 1,01
240, 0,00, -72916,88, 89575,69, 0,00, 0,00, 0,00, 0,00, 0,00, 0,00, -0,02, 1,01
241, 0,00, -17107,00, 38662,23, 0,00, 0,00, 0,00, 0,00, 0,00, 0,00, -0,02, 1,01
242, 0,00, 56965,12, -11413,72, 0,00, 0,00, 0,00, 0,00, 0,00, 0,00, -0,02, 1,01
243, 0,00, 47480,47, 8254,52, 0,00, 0,00, 0,00, 0,00, 0,00, 0,00, -0,03, 1,01
244, 0,00, -30448,15, 68149,04, 0,00, 0,00, 0,00, 0,00, 0,00, 0,00, -0,03, 1,01
245, 0,00, -73852,42, 90024,82, 0,00, 0,00, 0,00, 0,00, 0,00, 0,00, -0,03, 1,01
246, 0,00, -18854,12, 39558,86, 0,00, 0,00, 0,00, 0,00, 0,00, 0,00, -0,03, 1,01
247, 0,00, 55522,04, -10878,19, 0,00, 0,00, 0,00, 0,00, 0,00, 0,00, -0,03, 1,01
248, 0,00, 47044,23, 7990,64, 0,00, 0,00, 0,00, 0,00, 0,00, 0,00, -0,02, 1,01
249, 0,00, -30612,19, 67791,54, 0,00, 0,00, 0,00, 0,00, 0,00, 0,00, -0,02, 1,01
250, 0,00, -74530,15, 90226,48, 0,00, 0,00, 0,00, 0,00, 0,00, 0,00, -0,02, 1,01
251, 0,00, -19813,72, 40029,89, 0,00, 0,00, 0,00, 0,00, 0,00, 0,00, -0,02, 1,01
252, 0,00, 54983,37, -10718,87, 0,00, 0,00, 0,00, 0,00, 0,00, 0,00, -0,02, 1,01
253, 0,00, 47657,45, 7363,40, 0,00, 0,00, 0,00, 0,00, 0,00, 0,00, -0,02, 1,01
254, 0,00, -29641,43, 67036,01, 0,00, 0,00, 0,00, 0,00, 0,00, 0,00, -0,02, 1,01
255, 0,00, -74389,64, 90174,78, 0,00, 0,00, 0,00, 0,00, 0,00, 0,00, -0,02, 1,01
0, 0,00, -20410,34, 40441,61, 0,00, 0,00, 0,00, 0,00, 0,00, 0,00, -0,02, 1,01
1, 0,00, 54573,77, -10487,82, 0,00, 0,00, 0,00, 0,00, 0,00, 0,00, -0,02, 1,01
2, 0,00, 48114,34, 6915,56, 0,00, 0,00, 0,00, 0,00, 0,00, 0,00, -0,02, 1,01
3, 0,00, -29135,19, 66630,68, 0,00, 0,00, 0,00, 0,00, 0,00, 0,00, -0,02, 1,01
4, 0,00, -74572,34, 90362,16, 0,00, 0,00, 0,00, 0,00, 0,00, 0,00, -0,02, 1,01
5, 0,00, -21035,92, 40855,41, 0,00, 0,00, 0,00, 0,00, 0,00, 0,00, -0,02, 1,01
6, 0,00, 54278,26, -10377,56, 0,00, 0,00, 0,00, 0,00, 0,00, 0,00, -0,02, 1,01
7, 0,00, 48733,93, 6394,95, 0,00, 0,00, 0,00, 0,00, 0,00, 0,00, -0,02, 1,01
8, 0,00, -28284,99, 66062,79, 0,00, 0,00, 0,00, 0,00, 0,00, 0,00, -0,02, 1,01
9, 0,00, -74599,30, 90471,50, 0,00, 0,00, 0,00, 0,00, 0,00, 0,00, -0,02, 1,01
10, 0,00, -21722,30, 41353,65, 0,00, 0,00, 0,00, 0,00, 0,00, 0,00, -0,02, 1,01
11, 0,00, 53833,53, -10139,00, 0,00, 0,00, 0,00, 0,00, 0,00, 0,00, -0,02, 1,01
12, 0,00, 49245,65, 5874,53, 0,00, 0,00, 0,00, 0,00, 0,00, 0,00, -0,02, 1,01
13, 0,00, -27569,18, 65501,36, 0,00, 0,00, 0,00, 0,00, 0,00, 0,00, -0,02, 1,01
14, 0,00, -74624,83, 90514,46, 0,00, 0,00, 0,00, 0,00, 0,00, 0,00, -0,02, 1,01
15, 0,00, -22333,33, 41818,68, 0,00, 0,00, 0,00, 0,00, 0,00, 0,00, -0,02, 1,01
16, 0,00, 53489,87, -9949,07, 0,00, 0,00, 0,00, 0,00, 0,00, 0,00, -0,02, 1,01
17, 0,00, 49956,86, 5242,56, 0,00, 0,00, 0,00, 0,00, 0,00, 0,00, -0,03, 1,01
18, 0,00, -26568,71, 64840,26, 0,00, 0,00, 0,00, 0,00, 0,00, 0,00, -0,03, 1,01
19, 0,00, -74323,44, 90549,40, 0,00, 0,00, 0,00, 0,00, 0,00, 0,00, -0,03, 1,01
20, 0,00, -22632,12, 42178,84, 0,00, 0,00, 0,00, 0,00, 0,00, 0,00, -0,03, 1,01
21, 0,00, 53494,41, -9924,02, 0,00, 0,00, 0,00, 0,00, 0,00, 0,00, -0,03, 1,01
22, 0,00, 50934,35, 4618,72, 0,00, 0,00, 0,00, 0,00, 0,00, 0,00, -0,03, 1,01
23, 0,00, -25560,45, 64322,71, 0,00, 0,00, 0,00, 0,00, 0,00, 0,00, -0,03, 1,01
24, 0,00, -74021,58, 90604,18, 0,00, 0,00, 0,00, 0,00, 0,00, 0,00, -0,03, 1,01
25, 0,00, -22733,60, 42495,67, 0,00, 0,00, 0,00, 0,00, 0,00, 0,00, -0,03, 1,01
26, 0,00, 53548,99, -9764,38, 0,00, 0,00, 0,00, 0,00, 0,00, 0,00, -0,03, 1,01
27, 0,00, 51918,47, 4028,23, 0,00, 0,00, 0,00, 0,00, 0,00, 0,00, -0,03, 1,01
28, 0,00, -24132,80, 63530,99, 0,00, 0,00, 0,00, 0,00, 0,00, 0,00, -0,03, 1,01
29, 0,00, -73283,05, 90401,02, 0,00, 0,00, 0,00, 0,00, 0,00, 0,00, -0,03, 1,01
30, 0,00, -22738,14, 42743,82, 0,00, 0,00, 0,00, 0,00, 0,00, 0,00, -0,03, 1,01
31, 0,00, 53809,52, -9787,07, 0,00, 0,00, 0,00, 0,00, 0,00, 0,00, -0,03, 1,01
32, 0,00, 53045,96, 3436,54, 0,00, 0,00, 0,00, 0,00, 0,00, 0,00, -0,02, 1,01
33, 0,00, -22959,11, 62973,45, 0,00, 0,00, 0,00, 0,00, 0,00, 0,00, -0,02, 1,01
34, 0,00, -72956,94, 90499,33, 0,00, 0,00, 0,00, 0,00, 0,00, 0,00, -0,02, 1,01
35, 0,00, -22958,64, 43172,24, 0,00, 0,00, 0,00, 0,00, 0,00, 0,00, -0,02, 1,01
36, 0,00, 53719,73, -9549,07, 0,00, 0,00, 0,00, 0,00, 0,00, 0,00, -0,02, 1,01
37, 0,00, 53992,83, 2855,86, 0,00, 0,00, 0,00, 0,00, 0,00, 0,00, -0,02, 1,01
38, 0,00, -21674,13, 62307,09, 0,00, 0,00, 0,00, 0,00, 0,00, 0,00, -0,02, 1,01
39, 0,00, -72307,17, 90429,32, 0,00, 0,00, 0,00, 0,00, 0,00, 0,00, -0,02, 1,01
40, 0,00, -22956,56, 43555,01, 0,00, 0,00, 0,00, 0,00, 0,00, 0,00, -0,02, 1,01
41, 0,00, 53889,34, -9378,37, 0,00, 0,00, 0,00, 0,00, 0,00, 0,00, -0,02, 1,01
42, 0,00, 54905,23, 2406,39, 0,00, 0,00, 0,00, 0,00, 0,00, 0,00, -0,02, 1,01
43, 0,00, -20730,82, 61863,84, 0,00, 0,00, 0,00, 0,00, 0,00, 0,00, -0,02, 1,01
44, 0,00, -72163,95, 90621,88, 0,00, 0,00, 0,00, 0,00, 0,00, 0,00, -0,02, 1,01
45, 0,00, -23669,38, 44222,07, 0,00, 0,00, 0,00, 0,00, 0,00, 0,00, -0,02, 1,01
46, 0,00, 53186,53, -8914,41, 0,00, 0,00, 0,00, 0,00, 0,00, 0,00, -0,02, 1,01
47, 0,00, 55150,11, 2103,34, 0,00, 0,00, 0,00, 0,00, 0,00, 0,01, -0,02, 1,01
48, 0,00, -20208,08, 61474,87, 0,00, 0,00, 0,00, 0,00, 0,00, 0,01, -0,02, 1,01
49, 0,00, -72371,23, 90848,66, 0,00, 0,00, 0,00, 0,00, 0,00, 0,01, -0,02, 1,01
50, 0,00, -24561,10, 44865,05, 0,00, 0,00, 0,00, 0,00, 0,00, 0,01, -0,02, 1,01
51, 0,00, 52505,23, -8548,96, 0,00, 0,00, 0,00, 0,00, 0,00, 0,01, -0,02, 1,01
52, 0,00, 55363,75, 1793,59, 0,00, 0,00, 0,00, 0,00, 0,00, 0,01, -0,02, 1,02
53, 0,00, -19678,12, 61035,53, 0,00, 0,00, 0,00, 0,00, 0,00, 0,01, -0,02, 1,02
54, 0,00, -72426,35, 90908,77, 0,00, 0,00, 0,00, 0,00, 0,00, 0,01, -0,02, 1,02
55, 0,00, -25220,68, 45309,42, 0,00, 0,00, 0,00, 0,00, 0,00, 0,01, -0,02, 1,02
56, 0,00, 52034,10, -8313,60, 0,00, 0,00, 0,00, 0,00, 0,00, 0,01, -0,02, 1,02
57, 0,00, 55890,65, 1309,90, 0,00, 0,00, 0,00, 0,00, 0,00, 0,01, -0,02, 1,02
58, 0,00, -18824,73, 60468,29, 0,00, 0,00, 0,00, 0,00, 0,00, 0,01, -0,02, 1,02
59, 0,00, -72160,17, 90914,38, 0,00, 0,00, 0,00, 0,00, 0,00, 0,01, -0,02, 1,02
60, 0,00, -25535,30, 45699,48, 0,00, 0,00, 0,00, 0,00, 0,00, 0,01, -0,02, 1,02
61, 0,00, 51995,83, -8228,86, 0,00, 0,00, 0,00, 0,00, 0,00, 0,01, -0,02, 1,02
62, 0,00, 56791,24, 674,35, 0,00, 0,00, 0,00, 0,00, 0,00, 0,00, -0,02, 1,01
63, 0,00, -17620,91, 59766,91, 0,00, 0,00, 0,00, 0,00, 0,00, 0,00, -0,02, 1,01
64, 0,00, -71598,42, 90833,64, 0,00, 0,00, 0,00, 0,00, 0,00, 0,00, -0,02, 1,01
65, 0,00, -25565,05, 46007,71, 0,00, 0,00, 0,00, 0,00, 0,00, 0,00, -0,02, 1,01
66, 0,00, 52192,15, -8187,98, 0,00, 0,00, 0,00, 0,00, 0,00, 0,00, -0,02, 1,01
67, 0,00, 57932,37, 39,63, 0,00, 0,00, 0,00, 0,00, 0,00, -0,00, -0,02, 1,01
68, 0,00, -16310,85, 59221,79, 0,00, 0,00, 0,00, 0,00, 0,00, -0,00, -0,02, 1,01
69, 0,00, -71014,06, 90817,75, 0,00, 0,00, 0,00, 0,00, 0,00, -0,00, -0,02, 1,01
70, 0,00, -25609,71, 46316,34, 0,00, 0,00, 0,00, 0,00, 0,00, -0,00, -0,02, 1,01
71, 0,00, 52143,42, -7975,64, 0,00, 0,00, 0,00, 0,00, 0,00, -0,00, -0,02, 1,01
72, 0,00, 58708,55, -384,67, 0,00, 0,00, 0,00, 0,00, 0,00, 0,00, -0,03, 1,00
73, 0,00, -15217,76, 58596,91, 0,00, 0,00, 0,00, 0,00, 0,00, 0,00, -0,03, 1,00
74, 0,00, -70597,80, 90798,39, 0,00, 0,00, 0,00, 0,00, 0,00, 0,00, -0,03, 1,00
75, 0,00, -26152,39, 46904,80, 0,00, 0,00, 0,00, 0,00, 0,00, 0,00, -0,03, 1,00
76, 0,00, 51515,83, -7512,69, 0,00, 0,00, 0,00, 0,00, 0,00, 0,00, -0,03, 1,00
77, 0,00, 58981,98, -623,64, 0,00, 0,00, 0,00, 0,00, 0,00, 0,00, -0,02, 1,01
78, 0,00, -14712,45, 58306,40, 0,00, 0,00, 0,00, 0,00, 0,00, 0,00, -0,02, 1,01
79, 0,00, -70841,86, 91082,15, 0,00, 0,00, 0,00, 0,00, 0,00, 0,00, -0,02, 1,01
80, 0,00, -27170,00, 47621,86, 0,00, 0,00, 0,00, 0,00, 0,00, 0,00, -0,02, 1,01
81, 0,00, 50557,39, -7016,68, 0,00, 0,00, 0,00, 0,00, 0,00, 0,00, -0,02, 1,01
82, 0,00, 58871,39, -834,48, 0,00, 0,00, 0,00, 0,00, 0,00, 0,00, -0,02, 1,01
83, 0,00, -14508,76, 57942,54, 0,00, 0,00, 0,00, 0,00, 0,00, 0,00, -0,02, 1,01
84, 0,00, -71132,66, 91212,48, 0,00, 0,00, 0,00, 0,00, 0,00, 0,00, -0,02, 1,01
85, 0,00, -28162,46, 48229,43, 0,00, 0,00, 0,00, 0,00, 0,00, 0,00, -0,02, 1,01
86, 0,00, 49614,07, -6543,63, 0,00, 0,00, 0,00, 0,00, 0,00, 0,00, -0,02, 1,01
87, 0,00, 58835,11, -1115,80, 0,00, 0,00, 0,00, 0,00, 0,00, 0,00, -0,02, 1,01
88, 0,00, -14227,62, 57558,51, 0,00, 0,00, 0,00, 0,00, 0,00, 0,00, -0,02, 1,01
89, 0,00, -71527,62, 91418,92, 0,00, 0,00, 0,00, 0,00, 0,00, 0,00, -0,02, 1,01
90, 0,00, -29301,91, 48911,27, 0,00, 0,00, 0,00, 0,00, 0,00, 0,00, -0,02, 1,01
91, 0,00, 48642,49, -6125,99, 0,00, 0,00, 0,00, 0,00, 0,00, 0,00, -0,02, 1,01
92, 0,00, 58792,42, -1427,00, 0,00, 0,00, 0,00, 0,00, 0,00, 0,00, -0,02, 1,01
93, 0,00, -13904,75, 57138,79, 0,00, 0,00, 0,00, 0,00, 0,00, 0,00, -0,02, 1,01
94, 0,00, -71649,72, 91459,11, 0,00, 0,00, 0,00, 0,00, 0,00, 0,00, -0,02, 1,01
95, 0,00, -30294,84, 49506,83, 0,00, 0,00, 0,00, 0,00, 0,00, 0,00, -0,02, 1,01
96, 0,00, 47715,52, -5697,66, 0,00, 0,00, 0,00, 0,00, 0,00, 0,00, -0,02, 1,01
97, 0,00, 58782,25, -1708,84, 0,00, 0,00, 0,00, 0,00, 0,00, 0,00, -0,02, 1,01
98, 0,00, -13538,14, 56701,81, 0,00, 0,00, 0,00, 0,00, 0,00, 0,00, -0,02, 1,01
99, 0,00, -71915,15, 91583,30, 0,00, 0,00, 0,00, 0,00, 0,00, 0,00, -0,02, 1,01
100, 0,00, -31228,94, 50089,09, 0,00, 0,00, 0,00, 0,00, 0,00, 0,00, -0,02, 1,01
101, 0,00, 46892,01, -5306,57, 0,00, 0,00, 0,00, 0,00, 0,00, 0,00, -0,02, 1,01
102, 0,00, 58939,83, -2039,98, 0,00, 0,00, 0,00, 0,00, 0,00, 0,00, -0,02, 1,01
103, 0,00, -13067,70, 56275,97, 0,00, 0,00, 0,00, 0,00, 0,00, 0,00, -0,02, 1,01
104, 0,00, -72070,29, 91681,40, 0,00, 0,00, 0,00, 0,00, 0,00, 0,00, -0,02, 1,01
105, 0,00, -32132,29, 50642,26, 0,00, 0,00, 0,00, 0,00, 0,00, 0,00, -0,02, 1,01
106, 0,00, 46076,58, -4898,54, 0,00, 0,00, 0,00, 0,00, 0,00, 0,00, -0,02, 1,01
107, 0,00, 59117,86, -2389,94, 0,00, 0,00, 0,00, 0,00, 0,00, 0,01, -0,02, 1,01
108, 0,00, -12360,02, 55700,79, 0,00, 0,00, 0,00, 0,00, 0,00, 0,01, -0,02, 1,01
109, 0,00, -71887,48, 91630,55, 0,00, 0,00, 0,00, 0,00, 0,00, 0,01, -0,02, 1,01
110, 0,00, -32753,11, 51145,95, 0,00, 0,00, 0,00, 0,00, 0,00, 0,01, -0,02, 1,01
111, 0,00, 45573,04, -4662,60, 0,00, 0,00, 0,00, 0,00, 0,00, 0,01, -0,02, 1,01
112, 0,00, 59571,91, -2927,68, 0,00, 0,00, 0,00, 0,00, 0,00, 0,01, -0,02, 1,01
113, 0,00, -11656,66, 55121,70, 0,00, 0,00, 0,00, 0,00, 0,00, 0,01, -0,02, 1,01
114, 0,00, -71733,25, 91586,07, 0,00, 0,00, 0,00, 0,00, 0,00, 0,01, -0,02, 1,01
115, 0,00, -33246,16, 51561,36, 0,00, 0,00, 0,00, 0,00, 0,00, 0,01, -0,02, 1,01
116, 0,00, 45141,67, -4397,44, 0,00, 0,00, 0,00, 0,00, 0,00, 0,01, -0,02, 1,01
117, 0,00, 60039,60, -3321,29, 0,00, 0,00, 0,00, 0,00, 0,00, 0,00, -0,02, 1,01
118, 0,00, -10719,11, 54549,48, 0,00, 0,00, 0,00, 0,00, 0,00, 0,00, -0,02, 1,01
119, 0,00, -71233,69, 91405,24, 0,00, 0,00, 0,00, 0,00, 0,00, 0,00, -0,02, 1,01
120, 0,00, -33527,21, 51886,96, 0,00, 0,00, 0,00, 0,00, 0,00, 0,00, -0,02, 1,01
121, 0,00, 45005,59, -4274,28, 0,00, 0,00, 0,00, 0,00, 0,00, 0,00, -0,02, 1,01
122, 0,00, 60883,22, -3935,40, 0,00, 0,00, 0,00, 0,00, 0,00, 0,00, -0,02, 1,01
123, 0,00, -9489,70, 53834,46, 0,00, 0,00, 0,00, 0,00, 0,00, 0,00, -0,02, 1,01
124, 0,00, -70453,50, 91230,97, 0,00, 0,00, 0,00, 0,00, 0,00, 0,00, -0,02, 1,01
125, 0,00, -33326,98, 52096,66, 0,00, 0,00, 0,00, 0,00, 0,00, 0,00, -0,02, 1,01
126, 0,00, 45387,29, -4281,70, 0,00, 0,00, 0,00, 0,00, 0,00, 0,00, -0,02, 1,01
127, 0,00, 62527,48, -4812,71, 0,00, 0,00, 0,00, 0,00, 0,00, 0,00, -0,02, 1,01
128, 0,00, -7303,97, 52782,57, 0,00, 0,00, 0,00, 0,00, 0,00, 0,00, -0,02, 1,01
129, 0,00, -68884,85, 90741,04, 0,00, 0,00, 0,00, 0,00, 0,00, 0,00, -0,02, 1,01
130, 0,00, -32640,56, 52192,30, 0,00, 0,00, 0,00, 0,00, 0,00, 0,00, -0,02, 1,01
131, 0,00, 45789,96, -4116,14, 0,00, 0,00, 0,00, 0,00, 0,00, 0,00, -0,02, 1,01
132, 0,00, 63357,22, -5118,95, 0,00, 0,00, 0,00, 0,00, 0,00, 0,00, -0,02, 1,01
133, 0,00, -6460,37, 52451,68, 0,00, 0,00, 0,00, 0,00, 0,00, 0,00, -0,02, 1,01
134, 0,00, -68780,63, 90942,12, 0,00, 0,00, 0,00, 0,00, 0,00, 0,00, -0,02, 1,01
135, 0,00, -33501,40, 52979,85, 0,00, 0,00, 0,00, 0,00, 0,00, 0,00, -0,02, 1,01
136, 0,00, 44913,59, -3510,10, 0,00, 0,00, 0,00, 0,00, 0,00, 0,00, -0,02, 1,01
137, 0,00, 63343,93, -5251,25, 0,00, 0,00, 0,00, 0,00, 0,00, 0,00, -0,02, 1,01
138, 0,00, -6070,22, 52119,64, 0,00, 0,00, 0,00, 0,00, 0,00, 0,00, -0,02, 1,01
139, 0,00, -68907,43, 91092,56, 0,00, 0,00, 0,00, 0,00, 0,00, 0,00, -0,02, 1,01
140, 0,00, -34546,56, 53747,20, 0,00, 0,00, 0,00, 0,00, 0,00, 0,00, -0,02, 1,01
141, 0,00, 43812,79, -2867,28, 0,00, 0,00, 0,00, 0,00, 0,00, 0,00, -0,02, 1,01
142, 0,00, 63112,92, -5337,22, 0,00, 0,00, 0,00, 0,00, 0,00, 0,00, -0,02, 1,01
143, 0,00, -5949,56, 51850,68, 0,00, 0,00, 0,00, 0,00, 0,00, 0,01, -0,02, 1,01
144, 0,00, -69342,95, 91278,66, 0,00, 0,00, 0,00, 0,00, 0,00, 0,01, -0,02, 1,01
145, 0,00, -35838,09, 54497,86, 0,00, 0,00, 0,00, 0,00, 0,00, 0,01, -0,02, 1,01
146, 0,00, 42513,22, -2263,76, 0,00, 0,00, 0,00, 0,00, 0,00, 0,01, -0,02, 1,01
147, 0,00, 62600,46, -5334,18, 0,00, 0,00, 0,00, 0,00, 0,00, 0,01, -0,02, 1,01
148, 0,00, -6057,93, 51708,17, 0,00, 0,00, 0,00, 0,00, 0,00, 0,00, -0,01, 1,00
149, 0,00, -69948,55, 91538,95, 0,00, 0,00, 0,00, 0,00, 0,00, 0,00, -0,01, 1,00
150, 0,00, -37215,18, 55263,30, 0,00, 0,00, 0,00, 0,00, 0,00, 0,00, -0,01, 1,00
151, 0,00, 41157,63, -1595,24, 0,00, 0,00, 0,00, 0,00, 0,00, 0,00, -0,01, 1,00
152, 0,00, 62179,76, -5482,93, 0,00, 0,00, 0,00, 0,00, 0,00, 0,00, -0,01, 1,00
153, 0,00, -6161,95, 51389,39, 0,00, 0,00, 0,00, 0,00, 0,00, 0,00, -0,02, 1,00
154, 0,00, -70440,89, 91665,55, 0,00, 0,00, 0,00, 0,00, 0,00, 0,00, -0,02, 1,00
155, 0,00, -37965,24, 55598,02, 0,00, 0,00, 0,00, 0,00, 0,00, 0,00, -0,02, 1,00
156, 0,00, 40549,55, -1363,10, 0,00, 0,00, 0,00, 0,00, 0,00, 0,00, -0,02, 1,00
157, 0,00, 62475,89, -5908,77, 0,00, 0,00, 0,00, 0,00, 0,00, 0,00, -0,02, 1,00
158, 0,00, -5662,68, 50916,94, 0,00, 0,00, 0,00, 0,00, 0,00, 0,00, -0,03, 1,00
159, 0,00, -70841,66, 91871,91, 0,00, 0,00, 0,00, 0,00, 0,00, 0,00, -0,03, 1,00
160, 0,00, -39487,84, 56453,00, 0,00, 0,00, 0,00, 0,00, 0,00, 0,00, -0,03, 1,00
161, 0,00, 38775,65, -530,92, 0,00, 0,00, 0,00, 0,00, 0,00, 0,00, -0,03, 1,00
162, 0,00, 61589,13, -5832,49, 0,00, 0,00, 0,00, 0,00, 0,00, 0,00, -0,03, 1,00
163, 0,00, -5946,75, 50645,03, 0,00, 0,00, 0,00, 0,00, 0,00, 0,00, -0,02, 1,01
164, 0,00, -71448,60, 91946,76, 0,00, 0,00, 0,00, 0,00, 0,00, 0,00, -0,02, 1,01
165, 0,00, -40982,61, 57177,75, 0,00, 0,00, 0,00, 0,00, 0,00, 0,00, -0,02, 1,01
166, 0,00, 37350,03, 20,83, 0,00, 0,00, 0,00, 0,00, 0,00, 0,00, -0,02, 1,01
167, 0,00, 61137,52, -5992,15, 0,00, 0,00, 0,00, 0,00, 0,00, 0,00, -0,02, 1,01
168, 0,00, -6050,26, 50372,83, 0,00, 0,00, 0,00, 0,00, 0,00, 0,00, -0,02, 1,01
169, 0,00, -72083,16, 92136,30, 0,00, 0,00, 0,00, 0,00, 0,00, 0,00, -0,02, 1,01
170, 0,00, -42305,68, 57851,99, 0,00, 0,00, 0,00, 0,00, 0,00, 0,00, -0,02, 1,01
171, 0,00, 36059,04, 574,06, 0,00, 0,00, 0,00, 0,00, 0,00, 0,00, -0,02, 1,01
172, 0,00, 60754,90, -6220,56, 0,00, 0,00, 0,00, 0,00, 0,00, 0,00, -0,02, 1,01
173, 0,00, -5820,37, 49794,97, 0,00, 0,00, 0,00, 0,00, 0,00, 0,00, -0,03, 1,00
174, 0,00, -72208,96, 91931,96, 0,00, 0,00, 0,00, 0,00, 0,00, 0,00, -0,03, 1,00
175, 0,00, -43522,60, 58492,37, 0,00, 0,00, 0,00, 0,00, 0,00, 0,00, -0,03, 1,00
176, 0,00, 34858,75, 1078,99, 0,00, 0,00, 0,00, 0,00, 0,00, 0,00, -0,03, 1,00
177, 0,00, 60444,93, -6385,00, 0,00, 0,00, 0,00, 0,00, 0,00, 0,00, -0,03, 1,00
178, 0,00, -5775,76, 49498,29, 0,00, 0,00, 0,00, 0,00, 0,00, -0,00, -0,02, 1,00
179, 0,00, -72729,60, 92130,22, 0,00, 0,00, 0,00, 0,00, 0,00, -0,00, -0,02, 1,00
180, 0,00, -44636,36, 59019,24, 0,00, 0,00, 0,00, 0,00, 0,00, -0,00, -0,02, 1,00
181, 0,00, 33619,73, 1591,47, 0,00, 0,00, 0,00, 0,00, 0,00, -0,00, -0,02, 1,00
182, 0,00, 60175,52, -6626,40, 0,00, 0,00, 0,00, 0,00, 0,00, -0,00, -0,02, 1,00
183, 0,00, -5407,98, 48926,47, 0,00, 0,00, 0,00, 0,00, 0,00, -0,00, -0,02, 1,00
184, 0,00, -72731,77, 91961,71, 0,00, 0,00, 0,00, 0,00, 0,00, -0,00, -0,02, 1,00
185, 0,00, -45711,15, 59638,54, 0,00, 0,00, 0,00, 0,00, 0,00, -0,00, -0,02, 1,00
186, 0,00, 32601,02, 2077,01, 0,00, 0,00, 0,00, 0,00, 0,00, -0,00, -0,02, 1,00
187, 0,00, 59982,54, -6863,30, 0,00, 0,00, 0,00, 0,00, 0,00, -0,00, -0,02, 1,00
188, 0,00, -5166,92, 48443,47, 0,00, 0,00, 0,00, 0,00, 0,00, 0,00, -0,02, 1,00
189, 0,00, -72862,95, 91840,81, 0,00, 0,00, 0,00, 0,00, 0,00, 0,00, -0,02, 1,00
190, 0,00, -46602,07, 60093,80, 0,00, 0,00, 0,00, 0,00, 0,00, 0,00, -0,02, 1,00
191, 0,00, 31612,41, 2540,30, 0,00, 0,00, 0,00, 0,00, 0,00, 0,00, -0,02, 1,00
192, 0,00, 59970,64, -7157,14, 0,00, 0,00, 0,00, 0,00, 0,00, 0,00, -0,02, 1,00
193, 0,00, -4658,98, 47880,09, 0,00, 0,00, 0,00, 0,00, 0,00, 0,01, -0,02, 1,01
194, 0,00, -72702,42, 91666,27, 0,00, 0,00, 0,00, 0,00, 0,00, 0,01, -0,02, 1,01
195, 0,00, -47328,97, 60612,86, 0,00, 0,00, 0,00, 0,00, 0,00, 0,01, -0,02, 1,01
196, 0,00, 30916,75, 2904,99, 0,00, 0,00, 0,00, 0,00, 0,00, 0,01, -0,02, 1,01
197, 0,00, 60233,41, -7549,28, 0,00, 0,00, 0,00, 0,00, 0,00, 0,01, -0,02, 1,01
198, 0,00, -3847,09, 47231,43, 0,00, 0,00, 0,00, 0,00, 0,00, 0,01, -0,02, 1,01
199, 0,00, -72310,41, 91445,14, 0,00, 0,00, 0,00, 0,00, 0,00, 0,01, -0,02, 1,01
200, 0,00, -47832,53, 61012,88, 0,00, 0,00, 0,00, 0,00, 0,00, 0,01, -0,02, 1,01
201, 0,00, 30345,15, 3240,98, 0,00, 0,00, 0,00, 0,00, 0,00, 0,01, -0,02, 1,01
202, 0,00, 60581,72, -7938,53, 0,00, 0,00, 0,00, 0,00, 0,00, 0,01, -0,02, 1,01
203, 0,00, -3023,27, 46623,37, 0,00, 0,00, 0,00, 0,00, 0,00, 0,00, -0,02, 1,01
204, 0,00, -72026,95, 91342,26, 0,00, 0,00, 0,00, 0,00, 0,00, 0,00, -0,02, 1,01
205, 0,00, -48184,48, 61383,32, 0,00, 0,00, 0,00, 0,00, 0,00, 0,00, -0,02, 1,01
206, 0,00, 29957,51, 3567,52, 0,00, 0,00, 0,00, 0,00, 0,00, 0,00, -0,02, 1,01
207, 0,00, 61031,64, -8297,71, 0,00, 0,00, 0,00, 0,00, 0,00, 0,00, -0,02, 1,01
208, 0,00, -2152,00, 46028,90, 0,00, 0,00, 0,00, 0,00, 0,00, 0,01, -0,02, 1,01
209, 0,00, -71466,59, 91029,13, 0,00, 0,00, 0,00, 0,00, 0,00, 0,01, -0,02, 1,01
210, 0,00, -48708,14, 61840,70, 0,00, 0,00, 0,00, 0,00, 0,00, 0,01, -0,02, 1,01
211, 0,00, 29260,67, 4027,09, 0,00, 0,00, 0,00, 0,00, 0,00, 0,01, -0,02, 1,01
212, 0,00, 61221,34, -8549,41, 0,00, 0,00, 0,00, 0,00, 0,00, 0,01, -0,02, 1,01
213, 0,00, -1348,23, 45449,12, 0,00, 0,00, 0,00, 0,00, 0,00, 0,00, -0,02, 1,01
214, 0,00, -71024,88, 90819,78, 0,00, 0,00, 0,00, 0,00, 0,00, 0,00, -0,02, 1,01
215, 0,00, -49255,29, 62388,93, 0,00, 0,00, 0,00, 0,00, 0,00, 0,00, -0,02, 1,01
216, 0,00, 28704,27, 4435,10, 0,00, 0,00, 0,00, 0,00, 0,00, 0,00, -0,02, 1,01
217, 0,00, 61529,46, -8872,50, 0,00, 0,00, 0,00, 0,00, 0,00, 0,00, -0,02, 1,01
218, 0,00, -522,29, 44844,04, 0,00, 0,00, 0,00, 0,00, 0,00, 0,00, -0,02, 1,01
219, 0,00, -70493,96, 90567,50, 0,00, 0,00, 0,00, 0,00, 0,00, 0,00, -0,02, 1,01
220, 0,00, -49682,38, 62869,18, 0,00, 0,00, 0,00, 0,00, 0,00, 0,00, -0,02, 1,01
221, 0,00, 28169,68, 4852,05, 0,00, 0,00, 0,00, 0,00, 0,00, 0,00, -0,02, 1,01
222, 0,00, 61921,71, -9202,79, 0,00, 0,00, 0,00, 0,00, 0,00, 0,00, -0,02, 1,01
223, 0,00, 338,99, 44297,78, 0,00, 0,00, 0,00, 0,00, 0,00, 0,00, -0,02, 1,01
224, 0,00, -70201,98, 90559,38, 0,00, 0,00, 0,00, 0,00, 0,00, 0,00, -0,02, 1,01
225, 0,00, -50098,62, 63262,01, 0,00, 0,00, 0,00, 0,00, 0,00, 0,00, -0,02, 1,01
226, 0,00, 27603,49, 5239,11, 0,00, 0,00, 0,00, 0,00, 0,00, 0,00, -0,02, 1,01
227, 0,00, 62162,17, -9492,12, 0,00, 0,00, 0,00, 0,00, 0,00, 0,00, -0,02, 1,01
228, 0,00, 1120,45, 43668,98, 0,00, 0,00, 0,00, 0,00, 0,00, 0,00, -0,02, 1,01
229, 0,00, -69725,05, 90269,75, 0,00, 0,00, 0,00, 0,00, 0,00, 0,00, -0,02, 1,01
230, 0,00, -50822,68, 63884,55, 0,00, 0,00, 0,00, 0,00, 0,00, 0,00, -0,02, 1,01
231, 0,00, 26760,02, 5758,77, 0,00, 0,00, 0,00, 0,00, 0,00, 0,00, -0,02, 1,01
232, 0,00, 62088,25, -9632,46, 0,00, 0,00, 0,00, 0,00, 0,00, 0,00, -0,02, 1,01
233, 0,00, 1471,88, 43314,95, 0,00, 0,00, 0,00, 0,00, 0,00, 0,00, -0,02, 1,01
234, 0,00, -69898,87, 90356,99, 0,00, 0,00, 0,00, 0,00, 0,00, 0,00, -0,02, 1,01
235, 0,00, -51859,53, 64504,74, 0,00, 0,00, 0,00, 0,00, 0,00, 0,00, -0,02, 1,01
236, 0,00, 25419,70, 6480,17, 0,00, 0,00, 0,00, 0,00, 0,00, 0,00, -0,02, 1,01
237, 0,00, 61421,65, -9497,46, 0,00, 0,00, 0,00, 0,00, 0,00, 0,00, -0,02, 1,01
238, 0,00, 1181,18, 43212,94, 0,00, 0,00, 0,00, 0,00, 0,00, 0,00, -0,02, 1,01
239, 0,00, -70736,36, 90649,04, 0,00, 0,00, 0,00, 0,00, 0,00, 0,00, -0,02, 1,01
240, 0,00, -54072,04, 65710,15, 0,00, 0,00, 0,00, 0,00, 0,00, 0,00, -0,02, 1,01
241, 0,00, 23068,63, 7499,30, 0,00, 0,00, 0,00, 0,00, 0,00, 0,00, -0,02, 1,01
242, 0,00, 60379,84, -9549,27, 0,00, 0,00, 0,00, 0,00, 0,00, 0,00, -0,02, 1,01
243, 0,00, 1309,59, 42620,39, 0,00, 0,00, 0,00, 0,00, 0,00, 0,00, -0,02, 1,01
244, 0,00, -70404,20, 90216,17, 0,00, 0,00, 0,00, 0,00, 0,00, 0,00, -0,02, 1,01
245, 0,00, -53881,76, 65567,43, 0,00, 0,00, 0,00, 0,00, 0,00, 0,00, -0,02, 1,01
246, 0,00, 23520,43, 7243,60, 0,00, 0,00, 0,00, 0,00, 0,00, 0,00, -0,02, 1,01
247, 0,00, 61663,19, -10390,48, 0,00, 0,00, 0,00, 0,00, 0,00, 0,00, -0,02, 1,01
248, 0,00, 3089,32, 41544,16, 0,00, 0,00, 0,00, 0,00, 0,00, 0,00, -0,02, 1,01
249, 0,00, -68912,51, 89504,34, 0,00, 0,00, 0,00, 0,00, 0,00, 0,00, -0,02, 1,01
250, 0,00, -53651,49, 65806,51, 0,00, 0,00, 0,00, 0,00, 0,00, 0,00, -0,02, 1,01
251, 0,00, 23501,38, 7484,66, 0,00, 0,00, 0,00, 0,00, 0,00, 0,00, -0,02, 1,01
252, 0,00, 62403,45, -10799,27, 0,00, 0,00, 0,00, 0,00, 0,00, 0,00, -0,02, 1,01
253, 0,00, 4262,77, 40903,78, 0,00, 0,00, 0,00, 0,00, 0,00, 0,00, -0,01, 1,01
254, 0,00, -68344,86, 89387,06, 0,00, 0,00, 0,00, 0,00, 0,00, 0,00, -0,01, 1,01
255, 0,00, -53960,21, 66245,49, 0,00, 0,00, 0,00, 0,00, 0,00, 0,00, -0,01, 1,01
0, 0,00, 22904,48, 7932,30, 0,00, 0,00, 0,00, 0,00, 0,00, 0,00, -0,01, 1,01
1, 0,00, 62530,48, -10969,03, 0,00, 0,00, 0,00, 0,00, 0,00, 0,00, -0,01, 1,01
2, 0,00, 5001,90, 40389,96, 0,00, 0,00, 0,00, 0,00, 0,00, 0,00, -0,02, 1,01
3, 0,00, -67734,39, 89066,42, 0,00, 0,00, 0,00, 0,00, 0,00, 0,00, -0,02, 1,01
4, 0,00, -54409,11, 66716,73, 0,00, 0,00, 0,00, 0,00, 0,00, 0,00, -0,02, 1,01
5, 0,00, 22304,00, 8398,22, 0,00, 0,00, 0,00, 0,00, 0,00, 0,00, -0,02, 1,01
6, 0,00, 62800,93, -11227,86, 0,00, 0,00, 0,00, 0,00, 0,00, 0,00, -0,02, 1,01
7, 0,00, 5876,12, 39803,56, 0,00, 0,00, 0,00, 0,00, 0,00, 0,00, -0,01, 1,01
8, 0,00, -67313,26, 88966,38, 0,00, 0,00, 0,00, 0,00, 0,00, 0,00, -0,01, 1,01
9, 0,00, -54774,38, 67124,70, 0,00, 0,00, 0,00, 0,00, 0,00, 0,00, -0,01, 1,01
10, 0,00, 21756,85, 8799,17, 0,00, 0,00, 0,00, 0,00, 0,00, 0,00, -0,01, 1,01
11, 0,00, 63043,00, -11516,94, 0,00, 0,00, 0,00, 0,00, 0,00, 0,00, -0,01, 1,01
12, 0,00, 6704,34, 39225,84, 0,00, 0,00, 0,00, 0,00, 0,00, 0,00, -0,02, 1,01
13, 0,00, -66761,88, 88718,50, 0,00, 0,00, 0,00, 0,00, 0,00, 0,00, -0,02, 1,01
14, 0,00, -55253,36, 67671,78, 0,00, 0,00, 0,00, 0,00, 0,00, 0,00, -0,02, 1,01
15, 0,00, 21155,37, 9252,08, 0,00, 0,00, 0,00, 0,00, 0,00, 0,00, -0,02, 1,01
16, 0,00, 63223,32, -11743,25, 0,00, 0,00, 0,00, 0,00, 0,00, 0,00, -0,02, 1,01
17, 0,00, 7434,12, 38713,69, 0,00, 0,00, 0,00, 0,00, 0,00, 0,00, -0,02, 1,01
18, 0,00, -66338,73, 88541,05, 0,00, 0,00, 0,00, 0,00, 0,00, 0,00, -0,02, 1,01
19, 0,00, -55748,47, 68133,01, 0,00, 0,00, 0,00, 0,00, 0,00, 0,00, -0,02, 1,01
20, 0,00, 20371,51, 9782,78, 0,00, 0,00, 0,00, 0,00, 0,00, 0,00, -0,02, 1,01
21, 0,00, 63354,43, -11937,46, 0,00, 0,00, 0,00, 0,00, 0,00, 0,00, -0,02, 1,01
22, 0,00, 8323,59, 38105,50, 0,00, 0,00, 0,00, 0,00, 0,00, 0,00, -0,02, 1,01
23, 0,00, -65752,17, 88243,50, 0,00, 0,00, 0,00, 0,00, 0,00, 0,00, -0,02, 1,01
24, 0,00, -56176,05, 68589,63, 0,00, 0,00, 0,00, 0,00, 0,00, 0,00, -0,02, 1,01
25, 0,00, 19858,29, 10179,57, 0,00, 0,00, 0,00, 0,00, 0,00, 0,00, -0,02, 1,01
26, 0,00, 63619,79, -12231,75, 0,00, 0,00, 0,00, 0,00, 0,00, 0,00, -0,02, 1,01
27, 0,00, 9157,53, 37480,43, 0,00, 0,00, 0,00, 0,00, 0,00, 0,00, -0,02, 1,01
28, 0,00, -65226,52, 88006,10, 0,00, 0,00, 0,00, 0,00, 0,00, 0,00, -0,02, 1,01
29, 0,00, -56567,91, 69014,41, 0,00, 0,00, 0,00, 0,00, 0,00, 0,00, -0,02, 1,01
30, 0,00, 19221,96, 10594,08, 0,00, 0,00, 0,00, 0,00, 0,00, 0,00, -0,02, 1,01
31, 0,00, 63742,39, -12452,09, 0,00, 0,00, 0,00, 0,00, 0,00, 0,00, -0,02, 1,01
32, 0,00, 9923,10, 36897,79, 0,00, 0,00, 0,00, 0,00, 0,00, 0,00, -0,02, 1,01
33, 0,00, -64574,75, 87651,11, 0,00, 0,00, 0,00, 0,00, 0,00, 0,00, -0,02, 1,01
34, 0,00, -56927,30, 69462,38, 0,00, 0,00, 0,00, 0,00, 0,00, 0,00, -0,02, 1,01
35, 0,00, 18723,56, 10991,25, 0,00, 0,00, 0,00, 0,00, 0,00, 0,00, -0,02, 1,01
36, 0,00, 64055,00, -12743,15, 0,00, 0,00, 0,00, 0,00, 0,00, 0,00, -0,02, 1,01
37, 0,00, 10871,84, 36275,67, 0,00, 0,00, 0,00, 0,00, 0,00, 0,00, -0,02, 1,01
38, 0,00, -63892,82, 87380,84, 0,00, 0,00, 0,00, 0,00, 0,00, 0,00, -0,02, 1,01
39, 0,00, -57072,36, 69796,00, 0,00, 0,00, 0,00, 0,00, 0,00, 0,00, -0,02, 1,01
40, 0,00, 18366,74, 11366,38, 0,00, 0,00, 0,00, 0,00, 0,00, 0,00, -0,02, 1,01
41, 0,00, 64422,22, -12960,52, 0,00, 0,00, 0,00, 0,00, 0,00, 0,00, -0,02, 1,01
42, 0,00, 11897,18, 35652,35, 0,00, 0,00, 0,00, 0,00, 0,00, 0,00, -0,02, 1,01
43, 0,00, -63130,31, 86974,97, 0,00, 0,00, 0,00, 0,00, 0,00, 0,00, -0,02, 1,01
44, 0,00, -57367,74, 70193,93, 0,00, 0,00, 0,00, 0,00, 0,00, 0,00, -0,02, 1,01
45, 0,00, 17863,27, 11807,71, 0,00, 0,00, 0,00, 0,00, 0,00, 0,00, -0,02, 1,01
46, 0,00, 64643,50, -13160,24, 0,00, 0,00, 0,00, 0,00, 0,00, 0,00, -0,02, 1,01
47, 0,00, 12755,36, 35082,52, 0,00, 0,00, 0,00, 0,00, 0,00, 0,00, -0,01, 1,01
48, 0,00, -62504,77, 86729,59, 0,00, 0,00, 0,00, 0,00, 0,00, 0,00, -0,01, 1,01
49, 0,00, -57731,96, 70669,02, 0,00, 0,00, 0,00, 0,00, 0,00, 0,00, -0,01, 1,01
50, 0,00, 17225,62, 12296,83, 0,00, 0,00, 0,00, 0,00, 0,00, 0,00, -0,01, 1,01
51, 0,00, 64700,92, -13299,22, 0,00, 0,00, 0,00, 0,00, 0,00, 0,00, -0,01, 1,01
52, 0,00, 13477,14, 34532,17, 0,00, 0,00, 0,00, 0,00, 0,00, 0,00, -0,02, 1,01
53, 0,00, -61933,80, 86419,24, 0,00, 0,00, 0,00, 0,00, 0,00, 0,00, -0,02, 1,01
54, 0,00, -58175,11, 71132,95, 0,00, 0,00, 0,00, 0,00, 0,00, 0,00, -0,02, 1,01
55, 0,00, 16645,48, 12735,13, 0,00, 0,00, 0,00, 0,00, 0,00, 0,00, -0,02, 1,01
56, 0,00, 64883,51, -13467,71, 0,00, 0,00, 0,00, 0,00, 0,00, 0,00, -0,02, 1,01
57, 0,00, 14309,52, 33979,07, 0,00, 0,00, 0,00, 0,00, 0,00, 0,00, -0,02, 1,01
58, 0,00, -61288,93, 86085,70, 0,00, 0,00, 0,00, 0,00, 0,00, 0,00, -0,02, 1,01
59, 0,00, -58558,19, 71583,94, 0,00, 0,00, 0,00, 0,00, 0,00, 0,00, -0,02, 1,01
60, 0,00, 15938,45, 13292,67, 0,00, 0,00, 0,00, 0,00, 0,00, 0,00, -0,02, 1,01
61, 0,00, 64929,22, -13606,27, 0,00, 0,00, 0,00, 0,00, 0,00, 0,00, -0,02, 1,01
62, 0,00, 14982,08, 33445,54, 0,00, 0,00, 0,00, 0,00, 0,00, 0,00, -0,02, 1,01
63, 0,00, -61144,60, 86019,66, 0,00, 0,00, 0,00, 0,00, 0,00, 0,00, -0,02, 1,01
64, 0,00, -59141,48, 72007,86, 0,00, 0,00, 0,00, 0,00, 0,00, 0,00, -0,02, 1,01
65, 0,00, 15173,17, 13746,66, 0,00, 0,00, 0,00, 0,00, 0,00, 0,00, -0,02, 1,01
66, 0,00, 64738,47, -13627,32, 0,00, 0,00, 0,00, 0,00, 0,00, 0,00, -0,02, 1,01
67, 0,00, 15512,62, 32954,61, 0,00, 0,00, 0,00, 0,00, 0,00, 0,00, -0,02, 1,01
68, 0,00, -60519,85, 85594,73, 0,00, 0,00, 0,00, 0,00, 0,00, 0,00, -0,02, 1,01
69, 0,00, -59685,57, 72520,30, 0,00, 0,00, 0,00, 0,00, 0,00, 0,00, -0,02, 1,01
70, 0,00, 14406,37, 14279,43, 0,00, 0,00, 0,00, 0,00, 0,00, 0,00, -0,02, 1,01
71, 0,00, 64763,33, -13790,82, 0,00, 0,00, 0,00, 0,00, 0,00, 0,00, -0,02, 1,01
72, 0,00, 16301,66, 32329,54, 0,00, 0,00, 0,00, 0,00, 0,00, 0,00, -0,02, 1,01
73, 0,00, -60127,58, 85392,45, 0,00, 0,00, 0,00, 0,00, 0,00, 0,00, -0,02, 1,01
74, 0,00, -60204,46, 72983,65, 0,00, 0,00, 0,00, 0,00, 0,00, 0,00, -0,02, 1,01
75, 0,00, 13583,67, 14817,24, 0,00, 0,00, 0,00, 0,00, 0,00, 0,00, -0,02, 1,01
76, 0,00, 64702,89, -13863,02, 0,00, 0,00, 0,00, 0,00, 0,00, 0,00, -0,02, 1,01
77, 0,00, 16869,55, 31907,36, 0,00, 0,00, 0,00, 0,00, 0,00, 0,00, -0,02, 1,01
78, 0,00, -59725,89, 85097,72, 0,00, 0,00, 0,00, 0,00, 0,00, 0,00, -0,02, 1,01
79, 0,00, -60791,36, 73434,11, 0,00, 0,00, 0,00, 0,00, 0,00, 0,00, -0,02, 1,01
80, 0,00, 12782,07, 15332,87, 0,00, 0,00, 0,00, 0,00, 0,00, 0,00, -0,02, 1,01
81, 0,00, 64604,52, -13945,12, 0,00, 0,00, 0,00, 0,00, 0,00, 0,00, -0,02, 1,01
82, 0,00, 17506,94, 31319,67, 0,00, 0,00, 0,00, 0,00, 0,00, 0,00, -0,02, 1,01
83, 0,00, -59228,81, 84745,45, 0,00, 0,00, 0,00, 0,00, 0,00, 0,00, -0,02, 1,01
84, 0,00, -61305,11, 73907,05, 0,00, 0,00, 0,00, 0,00, 0,00, 0,00, -0,02, 1,01
85, 0,00, 12033,87, 15855,52, 0,00, 0,00, 0,00, 0,00, 0,00, 0,00, -0,02, 1,01
86, 0,00, 64622,49, -14092,44, 0,00, 0,00, 0,00, 0,00, 0,00, 0,00, -0,02, 1,01
87, 0,00, 18185,69, 30792,41, 0,00, 0,00, 0,00, 0,00, 0,00, 0,00, -0,02, 1,01
88, 0,00, -58953,08, 84659,87, 0,00, 0,00, 0,00, 0,00, 0,00, 0,00, -0,02, 1,01
89, 0,00, -61672,68, 74265,86, 0,00, 0,00, 0,00, 0,00, 0,00, 0,00, -0,02, 1,01
90, 0,00, 11404,96, 16301,91, 0,00, 0,00, 0,00, 0,00, 0,00, 0,00, -0,02, 1,01
91, 0,00, 64622,33, -14159,63, 0,00, 0,00, 0,00, 0,00, 0,00, 0,00, -0,02, 1,01
92, 0,00, 18943,08, 30203,75, 0,00, 0,00, 0,00, 0,00, 0,00, 0,00, -0,02, 1,01
93, 0,00, -58155,37, 84153,17, 0,00, 0,00, 0,00, 0,00, 0,00, 0,00, -0,02, 1,01
94, 0,00, -62033,69, 74678,72, 0,00, 0,00, 0,00, 0,00, 0,00, 0,00, -0,02, 1,01
95, 0,00, 10817,24, 16751,40, 0,00, 0,00, 0,00, 0,00, 0,00, 0,00, -0,02, 1,01
96, 0,00, 64716,70, -14309,83, 0,00, 0,00, 0,00, 0,00, 0,00, 0,00, -0,02, 1,01
97, 0,00, 19753,62, 29618,54, 0,00, 0,00, 0,00, 0,00, 0,00, 0,00, -0,02, 1,01
98, 0,00, -57635,60, 83873,60, 0,00, 0,00, 0,00, 0,00, 0,00, 0,00, -0,02, 1,01
99, 0,00, -62392,28, 75059,30, 0,00, 0,00, 0,00, 0,00, 0,00, 0,00, -0,02, 1,01
100, 0,00, 10122,50, 17279,78, 0,00, 0,00, 0,00, 0,00, 0,00, 0,00, -0,02, 1,01
101, 0,00, 64635,57, -14303,69, 0,00, 0,00, 0,00, 0,00, 0,00, 0,00, -0,02, 1,01
102, 0,00, 20451,51, 29087,42, 0,00, 0,00, 0,00, 0,00, 0,00, 0,00, -0,02, 1,01
103, 0,00, -56761,20, 83293,51, 0,00, 0,00, 0,00, 0,00, 0,00, 0,00, -0,02, 1,01
104, 0,00, -62626,50, 75440,40, 0,00, 0,00, 0,00, 0,00, 0,00, 0,00, -0,02, 1,01
105, 0,00, 9614,25, 17763,22, 0,00, 0,00, 0,00, 0,00, 0,00, 0,00, -0,02, 1,01
106, 0,00, 64778,88, -14434,69, 0,00, 0,00, 0,00, 0,00, 0,00, 0,00, -0,02, 1,01
107, 0,00, 21302,37, 28475,92, 0,00, 0,00, 0,00, 0,00, 0,00, 0,00, -0,02, 1,01
108, 0,00, -56285,07, 83062,05, 0,00, 0,00, 0,00, 0,00, 0,00, 0,00, -0,02, 1,01
109, 0,00, -63073,07, 75863,12, 0,00, 0,00, 0,00, 0,00, 0,00, 0,00, -0,02, 1,01
110, 0,00, 8818,12, 18283,82, 0,00, 0,00, 0,00, 0,00, 0,00, 0,00, -0,02, 1,01
111, 0,00, 64671,98, -14442,02, 0,00, 0,00, 0,00, 0,00, 0,00, 0,00, -0,02, 1,01
112, 0,00, 21981,51, 27983,00, 0,00, 0,00, 0,00, 0,00, 0,00, 0,01, -0,02, 1,01
113, 0,00, -55786,84, 82779,08, 0,00, 0,00, 0,00, 0,00, 0,00, 0,01, -0,02, 1,01
114, 0,00, -63559,39, 76283,33, 0,00, 0,00, 0,00, 0,00, 0,00, 0,01, -0,02, 1,01
115, 0,00, 8091,47, 18792,81, 0,00, 0,00, 0,00, 0,00, 0,00, 0,01, -0,02, 1,01
116, 0,00, 64594,93, -14494,52, 0,00, 0,00, 0,00, 0,00, 0,00, 0,01, -0,02, 1,01
117, 0,00, 22654,70, 27411,46, 0,00, 0,00, 0,00, 0,00, 0,00, 0,01, -0,02, 1,01
118, 0,00, -55122,51, 82336,49, 0,00, 0,00, 0,00, 0,00, 0,00, 0,01, -0,02, 1,01
119, 0,00, -63948,92, 76731,32, 0,00, 0,00, 0,00, 0,00, 0,00, 0,01, -0,02, 1,01
120, 0,00, 7348,25, 19331,49, 0,00, 0,00, 0,00, 0,00, 0,00, 0,01, -0,02, 1,01
121, 0,00, 64465,40, -14555,99, 0,00, 0,00, 0,00, 0,00, 0,00, 0,01, -0,02, 1,01
122, 0,00, 23295,39, 26868,99, 0,00, 0,00, 0,00, 0,00, 0,00, 0,00, -0,02, 1,01
123, 0,00, -54800,91, 82143,02, 0,00, 0,00, 0,00, 0,00, 0,00, 0,00, -0,02, 1,01
124, 0,00, -64426,55, 77113,45, 0,00, 0,00, 0,00, 0,00, 0,00, 0,00, -0,02, 1,01
125, 0,00, 6637,40, 19813,08, 0,00, 0,00, 0,00, 0,00, 0,00, 0,00, -0,02, 1,01
126, 0,00, 64397,74, -14601,21, 0,00, 0,00, 0,00, 0,00, 0,00, 0,00, -0,02, 1,01
127, 0,00, 24000,99, 26310,15, 0,00, 0,00, 0,00, 0,00, 0,00, 0,00, -0,02, 1,01
128, 0,00, -54069,18, 81686,93, 0,00, 0,00, 0,00, 0,00, 0,00, 0,00, -0,02, 1,01
129, 0,00, -64764,89, 77471,57, 0,00, 0,00, 0,00, 0,00, 0,00, 0,00, -0,02, 1,01
130, 0,00, 5896,14, 20324,51, 0,00, 0,00, 0,00, 0,00, 0,00, 0,00, -0,02, 1,01
131, 0,00, 64255,54, -14599,13, 0,00, 0,00, 0,00, 0,00, 0,00, 0,00, -0,02, 1,01
132, 0,00, 24644,92, 25787,72, 0,00, 0,00, 0,00, 0,00, 0,00, 0,00, -0,02, 1,01
133, 0,00, -53405,74, 81270,18, 0,00, 0,00, 0,00, 0,00, 0,00, 0,00, -0,02, 1,00
134, 0,00, -65112,73, 77887,00, 0,00, 0,00, 0,00, 0,00, 0,00, 0,00, -0,02, 1,00
135, 0,00, 5180,08, 20881,33, 0,00, 0,00, 0,00, 0,00, 0,00, 0,00, -0,02, 1,00
136, 0,00, 64037,93, -14553,76, 0,00, 0,00, 0,00, 0,00, 0,00, 0,00, -0,02, 1,00
137, 0,00, 25076,35, 25383,45, 0,00, 0,00, 0,00, 0,00, 0,00, 0,00, -0,02, 1,00
138, 0,00, -53274,73, 81137,59, 0,00, 0,00, 0,00, 0,00, 0,00, 0,00, -0,02, 1,01
139, 0,00, -66060,98, 78520,20, 0,00, 0,00, 0,00, 0,00, 0,00, 0,00, -0,02, 1,01
140, 0,00, 3872,86, 21612,57, 0,00, 0,00, 0,00, 0,00, 0,00, 0,00, -0,02, 1,01
141, 0,00, 63432,48, -14411,04, 0,00, 0,00, 0,00, 0,00, 0,00, 0,00, -0,02, 1,01
142, 0,00, 25544,73, 24805,34, 0,00, 0,00, 0,00, 0,00, 0,00, 0,00, -0,02, 1,01
143, 0,00, -52631,29, 80600,37, 0,00, 0,00, 0,00, 0,00, 0,00, -0,00, -0,01, 1,01
144, 0,00, -66239,68, 78722,48, 0,00, 0,00, 0,00, 0,00, 0,00, -0,00, -0,01, 1,01
145, 0,00, 3363,85, 21986,85, 0,00, 0,00, 0,00, 0,00, 0,00, -0,00, -0,01, 1,01
146, 0,00, 63523,16, -14580,91, 0,00, 0,00, 0,00, 0,00, 0,00, -0,00, -0,01, 1,01
147, 0,00, 26455,03, 24126,61, 0,00, 0,00, 0,00, 0,00, 0,00, -0,00, -0,01, 1,01
148, 0,00, -51810,20, 80135,00, 0,00, 0,00, 0,00, 0,00, 0,00, 0,00, -0,02, 1,01
149, 0,00, -66392,77, 79022,35, 0,00, 0,00, 0,00, 0,00, 0,00, 0,00, -0,02, 1,01
150, 0,00, 2856,58, 22378,45, 0,00, 0,00, 0,00, 0,00, 0,00, 0,00, -0,02, 1,01
151, 0,00, 63535,82, -14624,68, 0,00, 0,00, 0,00, 0,00, 0,00, 0,00, -0,02, 1,01
152, 0,00, 27246,13, 23598,17, 0,00, 0,00, 0,00, 0,00, 0,00, 0,00, -0,02, 1,01
153, 0,00, -51024,20, 79700,64, 0,00, 0,00, 0,00, 0,00, 0,00, -0,00, -0,02, 1,00
154, 0,00, -66631,35, 79390,24, 0,00, 0,00, 0,00, 0,00, 0,00, -0,00, -0,02, 1,00
155, 0,00, 2245,25, 22918,40, 0,00, 0,00, 0,00, 0,00, 0,00, -0,00, -0,02, 1,00
156, 0,00, 63518,78, -14616,16, 0,00, 0,00, 0,00, 0,00, 0,00, -0,00, -0,02, 1,00
157, 0,00, 28078,66, 22985,95, 0,00, 0,00, 0,00, 0,00, 0,00, -0,00, -0,02, 1,00
158, 0,00, -50405,62, 79367,55, 0,00, 0,00, 0,00, 0,00, 0,00, 0,00, -0,02, 1,02
159, 0,00, -66887,08, 79739,96, 0,00, 0,00, 0,00, 0,00, 0,00, 0,00, -0,02, 1,02
160, 0,00, 1648,37, 23386,65, 0,00, 0,00, 0,00, 0,00, 0,00, 0,00, -0,02, 1,02
161, 0,00, 63449,71, -14616,63, 0,00, 0,00, 0,00, 0,00, 0,00, 0,00, -0,02, 1,02
162, 0,00, 28772,30, 22498,82, 0,00, 0,00, 0,00, 0,00, 0,00, 0,00, -0,02, 1,02
163, 0,00, -49822,89, 79071,55, 0,00, 0,00, 0,00, 0,00, 0,00, 0,00, -0,02, 1,02
164, 0,00, -67119,98, 80042,35, 0,00, 0,00, 0,00, 0,00, 0,00, 0,00, -0,02, 1,02
165, 0,00, 1027,80, 23811,76, 0,00, 0,00, 0,00, 0,00, 0,00, 0,00, -0,02, 1,02
166, 0,00, 63305,88, -14675,78, 0,00, 0,00, 0,00, 0,00, 0,00, 0,00, -0,02, 1,02
167, 0,00, 29475,94, 21894,29, 0,00, 0,00, 0,00, 0,00, 0,00, 0,00, -0,02, 1,02
168, 0,00, -49109,29, 78635,98, 0,00, 0,00, 0,00, 0,00, 0,00, 0,01, -0,02, 1,01
169, 0,00, -67454,99, 80447,79, 0,00, 0,00, 0,00, 0,00, 0,00, 0,01, -0,02, 1,01
170, 0,00, 295,20, 24347,17, 0,00, 0,00, 0,00, 0,00, 0,00, 0,01, -0,02, 1,01
171, 0,00, 63108,32, -14645,80, 0,00, 0,00, 0,00, 0,00, 0,00, 0,01, -0,02, 1,01
172, 0,00, 30007,73, 21414,74, 0,00, 0,00, 0,00, 0,00, 0,00, 0,01, -0,02, 1,01
173, 0,00, -48832,79, 78454,30, 0,00, 0,00, 0,00, 0,00, 0,00, 0,00, -0,02, 1,01
174, 0,00, -67946,82, 80816,62, 0,00, 0,00, 0,00, 0,00, 0,00, 0,00, -0,02, 1,01
175, 0,00, -515,97, 24818,19, 0,00, 0,00, 0,00, 0,00, 0,00, 0,00, -0,02, 1,01
176, 0,00, 62759,65, -14595,51, 0,00, 0,00, 0,00, 0,00, 0,00, 0,00, -0,02, 1,01
177, 0,00, 30541,02, 20927,13, 0,00, 0,00, 0,00, 0,00, 0,00, 0,00, -0,02, 1,01
178, 0,00, -48065,30, 77886,93, 0,00, 0,00, 0,00, 0,00, 0,00, 0,00, -0,02, 1,01
179, 0,00, -68377,43, 81214,14, 0,00, 0,00, 0,00, 0,00, 0,00, 0,00, -0,02, 1,01
180, 0,00, -1359,39, 25407,96, 0,00, 0,00, 0,00, 0,00, 0,00, 0,00, -0,02, 1,01
181, 0,00, 62496,77, -14555,79, 0,00, 0,00, 0,00, 0,00, 0,00, 0,00, -0,02, 1,01
182, 0,00, 31107,17, 20353,63, 0,00, 0,00, 0,00, 0,00, 0,00, 0,00, -0,02, 1,01
183, 0,00, -47649,09, 77637,71, 0,00, 0,00, 0,00, 0,00, 0,00, 0,00, -0,03, 1,01
184, 0,00, -68670,91, 81553,20, 0,00, 0,00, 0,00, 0,00, 0,00, 0,00, -0,03, 1,01
185, 0,00, -2068,16, 25902,65, 0,00, 0,00, 0,00, 0,00, 0,00, 0,00, -0,03, 1,01
186, 0,00, 62215,68, -14472,58, 0,00, 0,00, 0,00, 0,00, 0,00, 0,00, -0,03, 1,01
187, 0,00, 31697,14, 19824,95, 0,00, 0,00, 0,00, 0,00, 0,00, 0,00, -0,03, 1,01
188, 0,00, -46875,38, 77053,23, 0,00, 0,00, 0,00, 0,00, 0,00, 0,00, -0,02, 1,00
189, 0,00, -68989,82, 81906,58, 0,00, 0,00, 0,00, 0,00, 0,00, 0,00, -0,02, 1,00
190, 0,00, -2804,99, 26452,33, 0,00, 0,00, 0,00, 0,00, 0,00, 0,00, -0,02, 1,00
191, 0,00, 61986,68, -14409,83, 0,00, 0,00, 0,00, 0,00, 0,00, 0,00, -0,02, 1,00
192, 0,00, 32386,43, 19275,94, 0,00, 0,00, 0,00, 0,00, 0,00, 0,00, -0,02, 1,00
193, 0,00, -46300,16, 76751,71, 0,00, 0,00, 0,00, 0,00, 0,00, 0,00, -0,02, 1,00
194, 0,00, -69257,86, 82211,03, 0,00, 0,00, 0,00, 0,00, 0,00, 0,00, -0,02, 1,00
195, 0,00, -3427,77, 26871,54, 0,00, 0,00, 0,00, 0,00, 0,00, 0,00, -0,02, 1,00
196, 0,00, 61743,38, -14351,99, 0,00, 0,00, 0,00, 0,00, 0,00, 0,00, -0,02, 1,00
197, 0,00, 33049,13, 18738,43, 0,00, 0,00, 0,00, 0,00, 0,00, 0,00, -0,02, 1,00
198, 0,00, -45373,19, 76141,57, 0,00, 0,00, 0,00, 0,00, 0,00, 0,00, -0,02, 1,01
199, 0,00, -69348,20, 82465,10, 0,00, 0,00, 0,00, 0,00, 0,00, 0,00, -0,02, 1,01
200, 0,00, -4057,53, 27378,58, 0,00, 0,00, 0,00, 0,00, 0,00, 0,00, -0,02, 1,01
201, 0,00, 61628,65, -14347,18, 0,00, 0,00, 0,00, 0,00, 0,00, 0,00, -0,02, 1,01
202, 0,00, 33723,71, 18206,46, 0,00, 0,00, 0,00, 0,00, 0,00, 0,00, -0,02, 1,01
203, 0,00, -44734,98, 75761,98, 0,00, 0,00, 0,00, 0,00, 0,00, 0,01, -0,02, 1,01
204, 0,00, -69538,42, 82767,26, 0,00, 0,00, 0,00, 0,00, 0,00, 0,01, -0,02, 1,01
205, 0,00, -4670,15, 27869,52, 0,00, 0,00, 0,00, 0,00, 0,00, 0,01, -0,02, 1,01
206, 0,00, 61470,89, -14301,45, 0,00, 0,00, 0,00, 0,00, 0,00, 0,01, -0,02, 1,01
207, 0,00, 34453,34, 17653,97, 0,00, 0,00, 0,00, 0,00, 0,00, 0,01, -0,02, 1,01
208, 0,00, -43992,16, 75334,95, 0,00, 0,00, 0,00, 0,00, 0,00, 0,00, -0,02, 1,01
209, 0,00, -69774,77, 83136,35, 0,00, 0,00, 0,00, 0,00, 0,00, 0,00, -0,02, 1,01
210, 0,00, -5310,71, 28416,04, 0,00, 0,00, 0,00, 0,00, 0,00, 0,00, -0,02, 1,01
211, 0,00, 61270,15, -14200,06, 0,00, 0,00, 0,00, 0,00, 0,00, 0,00, -0,02, 1,01
212, 0,00, 35151,16, 17109,23, 0,00, 0,00, 0,00, 0,00, 0,00, 0,00, -0,02, 1,01
213, 0,00, -43175,88, 74813,07, 0,00, 0,00, 0,00, 0,00, 0,00, 0,00, -0,02, 1,01
214, 0,00, -69857,00, 83358,66, 0,00, 0,00, 0,00, 0,00, 0,00, 0,00, -0,02, 1,01
215, 0,00, -5922,63, 28933,46, 0,00, 0,00, 0,00, 0,00, 0,00, 0,00, -0,02, 1,01
216, 0,00, 61105,24, -14104,89, 0,00, 0,00, 0,00, 0,00, 0,00, 0,00, -0,02, 1,01
217, 0,00, 35869,43, 16568,77, 0,00, 0,00, 0,00, 0,00, 0,00, 0,00, -0,02, 1,01
218, 0,00, -42482,15, 74416,38, 0,00, 0,00, 0,00, 0,00, 0,00, 0,00, -0,02, 1,01
219, 0,00, -70054,52, 83665,08, 0,00, 0,00, 0,00, 0,00, 0,00, 0,00, -0,02, 1,01
220, 0,00, -6599,53, 29379,98, 0,00, 0,00, 0,00, 0,00, 0,00, 0,00, -0,02, 1,01
221, 0,00, 60812,37, -14000,28, 0,00, 0,00, 0,00, 0,00, 0,00, 0,00, -0,02, 1,01
222, 0,00, 36478,22, 16071,78, 0,00, 0,00, 0,00, 0,00, 0,00, 0,00, -0,02, 1,01
223, 0,00, -41692,64, 73926,54, 0,00, 0,00, 0,00, 0,00, 0,00, 0,00, -0,02, 1,01
224, 0,00, -70213,13, 83932,77, 0,00, 0,00, 0,00, 0,00, 0,00, 0,00, -0,02, 1,01
225, 0,00, -7251,53, 29900,55, 0,00, 0,00, 0,00, 0,00, 0,00, 0,00, -0,02, 1,01
226, 0,00, 60555,63, -13874,02, 0,00, 0,00, 0,00, 0,00, 0,00, 0,00, -0,02, 1,01
227, 0,00, 37110,87, 15564,99, 0,00, 0,00, 0,00, 0,00, 0,00, 0,00, -0,02, 1,01
228, 0,00, -41024,70, 73485,47, 0,00, 0,00, 0,00, 0,00, 0,00, 0,00, -0,02, 1,01
229, 0,00, -70428,29, 84244,73, 0,00, 0,00, 0,00, 0,00, 0,00, 0,00, -0,02, 1,01
230, 0,00, -7880,71, 30453,54, 0,00, 0,00, 0,00, 0,00, 0,00, 0,00, -0,02, 1,01
231, 0,00, 60335,65, -13760,67, 0,00, 0,00, 0,00, 0,00, 0,00, 0,00, -0,02, 1,01
232, 0,00, 37764,03, 15039,39, 0,00, 0,00, 0,00, 0,00, 0,00, 0,00, -0,02, 1,01
233, 0,00, -40444,09, 73158,09, 0,00, 0,00, 0,00, 0,00, 0,00, 0,00, -0,02, 1,01
234, 0,00, -70672,81, 84539,73, 0,00, 0,00, 0,00, 0,00, 0,00, 0,00, -0,02, 1,01
235, 0,00, -8628,18, 30957,21, 0,00, 0,00, 0,00, 0,00, 0,00, 0,00, -0,02, 1,01
236, 0,00, 60028,76, -13642,19, 0,00, 0,00, 0,00, 0,00, 0,00, 0,00, -0,02, 1,01
237, 0,00, 38348,15, 14545,58, 0,00, 0,00, 0,00, 0,00, 0,00, 0,00, -0,02, 1,01
238, 0,00, -39886,62, 72793,66, 0,00, 0,00, 0,00, 0,00, 0,00, 0,00, -0,02, 1,01
239, 0,00, -70955,43, 84893,58, 0,00, 0,00, 0,00, 0,00, 0,00, 0,00, -0,02, 1,01
240, 0,00, -9356,91, 31489,90, 0,00, 0,00, 0,00, 0,00, 0,00, 0,00, -0,02, 1,01
241, 0,00, 59588,54, -13487,85, 0,00, 0,00, 0,00, 0,00, 0,00, 0,00, -0,02, 1,01
242, 0,00, 38816,89, 14077,55, 0,00, 0,00, 0,00, 0,00, 0,00, 0,00, -0,02, 1,01
243, 0,00, -39272,89, 72375,26, 0,00, 0,00, 0,00, 0,00, 0,00, 0,00, -0,02, 1,01
244, 0,00, -71244,28, 85212,98, 0,00, 0,00, 0,00, 0,00, 0,00, 0,00, -0,02, 1,01
245, 0,00, -10171,65, 32079,76, 0,00, 0,00, 0,00, 0,00, 0,00, 0,00, -0,02, 1,01
246, 0,00, 59125,52, -13245,84, 0,00, 0,00, 0,00, 0,00, 0,00, 0,00, -0,02, 1,01
247, 0,00, 39283,43, 13609,51, 0,00, 0,00, 0,00, 0,00, 0,00, 0,00, -0,02, 1,01
248, 0,00, -38608,21, 71836,20, 0,00, 0,00, 0,00, 0,00, 0,00, 0,00, -0,02, 1,01
249, 0,00, -71522,48, 85419,70, 0,00, 0,00, 0,00, 0,00, 0,00, 0,00, -0,02, 1,01
250, 0,00, -10957,50, 32595,41, 0,00, 0,00, 0,00, 0,00, 0,00, 0,00, -0,02, 1,01
251, 0,00, 58794,45, -13150,80, 0,00, 0,00, 0,00, 0,00, 0,00, 0,00, -0,02, 1,01
252, 0,00, 39847,46, 13073,29, 0,00, 0,00, 0,00, 0,00, 0,00, 0,00, -0,02, 1,01
253, 0,00, -38105,75, 71522,02, 0,00, 0,00, 0,00, 0,00, 0,00, 0,00, -0,02, 1,01
254, 0,00, -71828,78, 85751,57, 0,00, 0,00, 0,00, 0,00, 0,00, 0,00, -0,02, 1,01
255, 0,00, -11712,92, 33136,66, 0,00, 0,00, 0,00, 0,00, 0,00, 0,00, -0,02, 1,01
0, 0,00, 58346,16, -12940,03, 0,00, 0,00, 0,00, 0,00, 0,00, 0,00, -0,02, 1,01
1, 0,00, 40316,53, 12616,20, 0,00, 0,00, 0,00, 0,00, 0,00, 0,00, -0,02, 1,01
2, 0,00, -37612,53, 71126,76, 0,00, 0,00, 0,00, 0,00, 0,00, 0,00, -0,02, 1,01
3, 0,00, -72096,76, 85997,20, 0,00, 0,00, 0,00, 0,00, 0,00, 0,00, -0,02, 1,01
4, 0,00, -12414,54, 33614,59, 0,00, 0,00, 0,00, 0,00, 0,00, 0,00, -0,02, 1,01
5, 0,00, 57978,61, -12739,80, 0,00, 0,00, 0,00, 0,00, 0,00, 0,00, -0,02, 1,01
6, 0,00, 40888,89, 12150,85, 0,00, 0,00, 0,00, 0,00, 0,00, 0,00, -0,02, 1,01
7, 0,00, -36874,99, 70661,95, 0,00, 0,00, 0,00, 0,00, 0,00, 0,00, -0,02, 1,01
8, 0,00, -72312,00, 86288,77, 0,00, 0,00, 0,00, 0,00, 0,00, 0,00, -0,02, 1,01
9, 0,00, -13251,70, 34198,68, 0,00, 0,00, 0,00, 0,00, 0,00, 0,00, -0,02, 1,01
10, 0,00, 57501,43, -12549,14, 0,00, 0,00, 0,00, 0,00, 0,00, 0,00, -0,02, 1,01
11, 0,00, 41361,59, 11666,92, 0,00, 0,00, 0,00, 0,00, 0,00, 0,00, -0,02, 1,01
12, 0,00, -36236,65, 70195,85, 0,00, 0,00, 0,00, 0,00, 0,00, 0,00, -0,02, 1,01
13, 0,00, -72477,95, 86483,68, 0,00, 0,00, 0,00, 0,00, 0,00, 0,00, -0,02, 1,01
14, 0,00, -14060,63, 34793,51, 0,00, 0,00, 0,00, 0,00, 0,00, 0,00, -0,02, 1,01
15, 0,00, 57024,95, -12299,58, 0,00, 0,00, 0,00, 0,00, 0,00, 0,00, -0,02, 1,01
16, 0,00, 42668,23, 10631,90, 0,00, 0,00, 0,00, 0,00, 0,00, 0,00, -0,02, 1,01
17, 0,00, -25093,23, 62807,13, 0,00, 0,00, 0,00, 0,00, 0,00, 0,00, -0,02, 1,01
18, 0,00, -56862,75, 78598,30, 0,00, 0,00, 0,00, 0,00, 0,00, 0,00, -0,02, 1,01
19, 0,00, -21610,02, 42871,52, 0,00, 0,00, 0,00, 0,00, 0,00, 0,00, -0,02, 1,01
20, 0,00, 32924,68, 3300,99, 0,00, 0,00, 0,00, 0,00, 0,00, 0,00, -0,02, 1,01
21, 0,00, 33873,09, 12694,45, 0,00, 0,00, 0,00, 0,00, 0,00, 0,00, -0,02, 1,01
22, 0,00, -19147,80, 56733,17, 0,00, 0,00, 0,00, 0,00, 0,00, 0,00, -0,02, 1,01
23, 0,00, -54944,36, 77159,25, 0,00, 0,00, 0,00, 0,00, 0,00, 0,00, -0,02, 1,01
24, 0,00, -21782,02, 42921,70, 0,00, 0,00, 0,00, 0,00, 0,00, 0,00, -0,02, 1,01
25, 0,00, 32710,86, 3275,83, 0,00, 0,00, 0,00, 0,00, 0,00, 0,00, -0,02, 1,01
26, 0,00, 34363,70, 12145,78, 0,00, 0,00, 0,00, 0,00, 0,00, 0,00, -0,02, 1,01
27, 0,00, -18432,30, 56093,67, 0,00, 0,00, 0,00, 0,00, 0,00, 0,00, -0,02, 1,01
28, 0,00, -54767,38, 77063,11, 0,00, 0,00, 0,00, 0,00, 0,00, 0,00, -0,02, 1,01
29, 0,00, -22186,77, 43212,18, 0,00, 0,00, 0,00, 0,00, 0,00, 0,00, -0,02, 1,01
30, 0,00, 32544,16, 3264,63, 0,00, 0,00, 0,00, 0,00, 0,00, 0,00, -0,02, 1,01
31, 0,00, 34838,28, 11668,66, 0,00, 0,00, 0,00, 0,00, 0,00, 0,00, -0,02, 1,01
32, 0,00, -17865,44, 55720,80, 0,00, 0,00, 0,00, 0,00, 0,00, 0,00, -0,03, 1,01
33, 0,00, -54728,38, 77119,98, 0,00, 0,00, 0,00, 0,00, 0,00, 0,00, -0,03, 1,01
34, 0,00, -22475,82, 43466,16, 0,00, 0,00, 0,00, 0,00, 0,00, 0,00, -0,03, 1,01
35, 0,00, 32323,88, 3426,10, 0,00, 0,00, 0,00, 0,00, 0,00, 0,00, -0,03, 1,01
36, 0,00, 35336,43, 11233,56, 0,00, 0,00, 0,00, 0,00, 0,00, 0,00, -0,03, 1,01
37, 0,00, -17039,67, 55102,10, 0,00, 0,00, 0,00, 0,00, 0,00, -0,00, -0,03, 1,01
38, 0,00, -54394,42, 77042,62, 0,00, 0,00, 0,00, 0,00, 0,00, -0,00, -0,03, 1,01
39, 0,00, -22788,54, 43877,21, 0,00, 0,00, 0,00, 0,00, 0,00, -0,00, -0,03, 1,01
40, 0,00, 32206,47, 3592,71, 0,00, 0,00, 0,00, 0,00, 0,00, -0,00, -0,03, 1,01
41, 0,00, 35831,84, 10874,28, 0,00, 0,00, 0,00, 0,00, 0,00, -0,00, -0,03, 1,01
42, 0,00, -16393,69, 54699,10, 0,00, 0,00, 0,00, 0,00, 0,00, 0,00, -0,03, 1,01
43, 0,00, -54282,19, 77109,23, 0,00, 0,00, 0,00, 0,00, 0,00, 0,00, -0,03, 1,01
44, 0,00, -23096,73, 44202,41, 0,00, 0,00, 0,00, 0,00, 0,00, 0,00, -0,03, 1,01
45, 0,00, 31935,05, 3778,76, 0,00, 0,00, 0,00, 0,00, 0,00, 0,00, -0,03, 1,01
46, 0,00, 36306,72, 10470,07, 0,00, 0,00, 0,00, 0,00, 0,00, 0,00, -0,03, 1,01
47, 0,00, -15694,66, 54277,52, 0,00, 0,00, 0,00, 0,00, 0,00, 0,00, -0,02, 1,00
48, 0,00, -54035,23, 77102,41, 0,00, 0,00, 0,00, 0,00, 0,00, 0,00, -0,02, 1,00
49, 0,00, -23387,28, 44503,62, 0,00, 0,00, 0,00, 0,00, 0,00, 0,00, -0,02, 1,00
50, 0,00, 31768,31, 3927,56, 0,00, 0,00, 0,00, 0,00, 0,00, 0,00, -0,02, 1,00
51, 0,00, 36768,93, 10131,06, 0,00, 0,00, 0,00, 0,00, 0,00, 0,00, -0,02, 1,00
52, 0,00, -15024,57, 53792,64, 0,00, 0,00, 0,00, 0,00, 0,00, -0,00, -0,02, 1,00
53, 0,00, -53848,23, 77070,66, 0,00, 0,00, 0,00, 0,00, 0,00, -0,00, -0,02, 1,00
54, 0,00, -23692,76, 44854,45, 0,00, 0,00, 0,00, 0,00, 0,00, -0,00, -0,02, 1,00
55, 0,00, 31532,68, 4136,66, 0,00, 0,00, 0,00, 0,00, 0,00, -0,00, -0,02, 1,00
56, 0,00, 37199,74, 9781,66, 0,00, 0,00, 0,00, 0,00, 0,00, -0,00, -0,02, 1,00
57, 0,00, -14298,43, 53307,19, 0,00, 0,00, 0,00, 0,00, 0,00, 0,00, -0,01, 1,00
58, 0,00, -53590,32, 77054,30, 0,00, 0,00, 0,00, 0,00, 0,00, 0,00, -0,01, 1,00
59, 0,00, -24102,73, 45316,66, 0,00, 0,00, 0,00, 0,00, 0,00, 0,00, -0,01, 1,00
60, 0,00, 31282,00, 4394,62, 0,00, 0,00, 0,00, 0,00, 0,00, 0,00, -0,01, 1,00
61, 0,00, 37632,49, 9455,68, 0,00, 0,00, 0,00, 0,00, 0,00, 0,00, -0,01, 1,00
62, 0,00, -13664,94, 52934,58, 0,00, 0,00, 0,00, 0,00, 0,00, 0,00, -0,02, 1,00
63, 0,00, -53466,09, 77145,99, 0,00, 0,00, 0,00, 0,00, 0,00, 0,00, -0,02, 1,00
64, 0,00, -24381,77, 45613,94, 0,00, 0,00, 0,00, 0,00, 0,00, 0,00, -0,02, 1,00
65, 0,00, 31093,09, 4526,94, 0,00, 0,00, 0,00, 0,00, 0,00, 0,00, -0,02, 1,00
66, 0,00, 38114,39, 9086,27, 0,00, 0,00, 0,00, 0,00, 0,00, 0,00, -0,02, 1,00
67, 0,00, -12965,29, 52512,80, 0,00, 0,00, 0,00, 0,00, 0,00, 0,00, -0,02, 1,01
68, 0,00, -53195,45, 77139,98, 0,00, 0,00, 0,00, 0,00, 0,00, 0,00, -0,02, 1,01
69, 0,00, -24677,82, 45998,95, 0,00, 0,00, 0,00, 0,00, 0,00, 0,00, -0,02, 1,01
70, 0,00, 30842,01, 4765,19, 0,00, 0,00, 0,00, 0,00, 0,00, 0,00, -0,02, 1,01
71, 0,00, 38527,90, 8735,20, 0,00, 0,00, 0,00, 0,00, 0,00, 0,00, -0,02, 1,01
72, 0,00, -12229,40, 52045,50, 0,00, 0,00, 0,00, 0,00, 0,00, 0,00, -0,03, 1,00
73, 0,00, -52933,60, 77126,13, 0,00, 0,00, 0,00, 0,00, 0,00, 0,00, -0,03, 1,00
74, 0,00, -24956,04, 46349,67, 0,00, 0,00, 0,00, 0,00, 0,00, 0,00, -0,03, 1,00
75, 0,00, 30651,88, 4966,51, 0,00, 0,00, 0,00, 0,00, 0,00, 0,00, -0,03, 1,00
76, 0,00, 39023,57, 8393,15, 0,00, 0,00, 0,00, 0,00, 0,00, 0,00, -0,03, 1,00
77, 0,00, -11543,49, 51609,37, 0,00, 0,00, 0,00, 0,00, 0,00, 0,00, -0,03, 1,00
78, 0,00, -52697,30, 77096,75, 0,00, 0,00, 0,00, 0,00, 0,00, 0,00, -0,03, 1,00
79, 0,00, -25293,50, 46664,72, 0,00, 0,00, 0,00, 0,00, 0,00, 0,00, -0,03, 1,00
80, 0,00, 30460,26, 5104,56, 0,00, 0,00, 0,00, 0,00, 0,00, 0,00, -0,03, 1,00
81, 0,00, 39470,86, 8012,65, 0,00, 0,00, 0,00, 0,00, 0,00, 0,00, -0,03, 1,00
82, 0,00, -10922,87, 51253,58, 0,00, 0,00, 0,00, 0,00, 0,00, 0,00, -0,02, 1,01
83, 0,00, -52575,79, 77211,38, 0,00, 0,00, 0,00, 0,00, 0,00, 0,00, -0,02, 1,01
84, 0,00, -25591,67, 47016,67, 0,00, 0,00, 0,00, 0,00, 0,00, 0,00, -0,02, 1,01
85, 0,00, 30153,51, 5330,82, 0,00, 0,00, 0,00, 0,00, 0,00, 0,00, -0,02, 1,01
86, 0,00, 39844,62, 7712,78, 0,00, 0,00, 0,00, 0,00, 0,00, 0,00, -0,02, 1,01
87, 0,00, -10246,31, 50788,84, 0,00, 0,00, 0,00, 0,00, 0,00, 0,01, -0,02, 1,01
88, 0,00, -52278,34, 77161,77, 0,00, 0,00, 0,00, 0,00, 0,00, 0,01, -0,02, 1,01
89, 0,00, -26006,43, 47476,45, 0,00, 0,00, 0,00, 0,00, 0,00, 0,01, -0,02, 1,01
90, 0,00, 29765,39, 5661,23, 0,00, 0,00, 0,00, 0,00, 0,00, 0,01, -0,02, 1,01
91, 0,00, 40054,91, 7485,38, 0,00, 0,00, 0,00, 0,00, 0,00, 0,01, -0,02, 1,01
92, 0,00, -9754,79, 50423,01, 0,00, 0,00, 0,00, 0,00, 0,00, 0,00, -0,02, 1,01
93, 0,00, -52249,50, 77240,56, 0,00, 0,00, 0,00, 0,00, 0,00, 0,00, -0,02, 1,01
94, 0,00, -26498,93, 47927,46, 0,00, 0,00, 0,00, 0,00, 0,00, 0,00, -0,02, 1,01
95, 0,00, 29329,33, 5954,04, 0,00, 0,00, 0,00, 0,00, 0,00, 0,00, -0,02, 1,01
96, 0,00, 40279,21, 7204,57, 0,00, 0,00, 0,00, 0,00, 0,00, 0,00, -0,02, 1,01
97, 0,00, -9349,87, 50131,21, 0,00, 0,00, 0,00, 0,00, 0,00, -0,00, -0,02, 1,01
98, 0,00, -52315,22, 77379,97, 0,00, 0,00, 0,00, 0,00, 0,00, -0,00, -0,02, 1,01
99, 0,00, -27103,90, 48383,97, 0,00, 0,00, 0,00, 0,00, 0,00, -0,00, -0,02, 1,01
100, 0,00, 28790,03, 6247,76, 0,00, 0,00, 0,00, 0,00, 0,00, -0,00, -0,02, 1,01
101, 0,00, 40378,11, 6971,67, 0,00, 0,00, 0,00, 0,00, 0,00, -0,00, -0,02, 1,01
102, 0,00, -8934,64, 49777,47, 0,00, 0,00, 0,00, 0,00, 0,00, 0,00, -0,02, 1,01
103, 0,00, -52338,08, 77448,08, 0,00, 0,00, 0,00, 0,00, 0,00, 0,00, -0,02, 1,01
104, 0,00, -27686,26, 48830,09, 0,00, 0,00, 0,00, 0,00, 0,00, 0,00, -0,02, 1,01
105, 0,00, 28208,04, 6584,47, 0,00, 0,00, 0,00, 0,00, 0,00, 0,00, -0,02, 1,01
106, 0,00, 40505,14, 6721,82, 0,00, 0,00, 0,00, 0,00, 0,00, 0,00, -0,02, 1,01
107, 0,00, -8494,20, 49399,34, 0,00, 0,00, 0,00, 0,00, 0,00, 0,00, -0,02, 1,01
108, 0,00, -52240,88, 77450,34, 0,00, 0,00, 0,00, 0,00, 0,00, 0,00, -0,02, 1,01
109, 0,00, -28230,61, 49268,90, 0,00, 0,00, 0,00, 0,00, 0,00, 0,00, -0,02, 1,01
110, 0,00, 27728,81, 6866,10, 0,00, 0,00, 0,00, 0,00, 0,00, 0,00, -0,02, 1,01
111, 0,00, 40655,43, 6476,51, 0,00, 0,00, 0,00, 0,00, 0,00, 0,00, -0,02, 1,01
112, 0,00, -8104,54, 49124,71, 0,00, 0,00, 0,00, 0,00, 0,00, 0,00, -0,02, 1,01
113, 0,00, -52292,44, 77657,94, 0,00, 0,00, 0,00, 0,00, 0,00, 0,00, -0,03, 1,01
114, 0,00, -28690,68, 49701,09, 0,00, 0,00, 0,00, 0,00, 0,00, 0,00, -0,03, 1,01
115, 0,00, 27300,33, 7167,94, 0,00, 0,00, 0,00, 0,00, 0,00, 0,00, -0,03, 1,01
116, 0,00, 40882,25, 6227,42, 0,00, 0,00, 0,00, 0,00, 0,00, 0,00, -0,03, 1,01
117, 0,00, -7607,66, 48692,63, 0,00, 0,00, 0,00, 0,00, 0,00, 0,00, -0,03, 1,01
118, 0,00, -52194,59, 77539,95, 0,00, 0,00, 0,00, 0,00, 0,00, 0,00, -0,03, 1,02
119, 0,00, -29273,32, 50076,27, 0,00, 0,00, 0,00, 0,00, 0,00, 0,00, -0,03, 1,02
120, 0,00, 26897,93, 7308,71, 0,00, 0,00, 0,00, 0,00, 0,00, 0,00, -0,03, 1,02
121, 0,00, 41103,09, 5896,01, 0,00, 0,00, 0,00, 0,00, 0,00, 0,00, -0,03, 1,02
122, 0,00, -7272,41, 48430,91, 0,00, 0,00, 0,00, 0,00, 0,00, 0,00, -0,03, 1,02
123, 0,00, -52376,48, 77760,11, 0,00, 0,00, 0,00, 0,00, 0,00, 0,00, -0,03, 1,01
124, 0,00, -29764,63, 50457,34, 0,00, 0,00, 0,00, 0,00, 0,00, 0,00, -0,03, 1,01
125, 0,00, 26404,43, 7640,00, 0,00, 0,00, 0,00, 0,00, 0,00, 0,00, -0,03, 1,01
126, 0,00, 41265,54, 5663,33, 0,00, 0,00, 0,00, 0,00, 0,00, 0,00, -0,03, 1,01
127, 0,00, -6741,98, 47942,68, 0,00, 0,00, 0,00, 0,00, 0,00, 0,00, -0,03, 1,01
128, 0,00, -52132,92, 77602,44, 0,00, 0,00, 0,00, 0,00, 0,00, 0,00, -0,02, 1,01
129, 0,00, -30290,50, 50906,66, 0,00, 0,00, 0,00, 0,00, 0,00, 0,00, -0,02, 1,01
130, 0,00, 25927,38, 7940,48, 0,00, 0,00, 0,00, 0,00, 0,00, 0,00, -0,02, 1,01
131, 0,00, 41399,92, 5434,58, 0,00, 0,00, 0,00, 0,00, 0,00, 0,00, -0,02, 1,01
132, 0,00, -6306,37, 47613,15, 0,00, 0,00, 0,00, 0,00, 0,00, 0,00, -0,02, 1,01
133, 0,00, -52131,11, 77712,85, 0,00, 0,00, 0,00, 0,00, 0,00, 0,01, -0,02, 1,01
134, 0,00, -30728,15, 51307,85, 0,00, 0,00, 0,00, 0,00, 0,00, 0,01, -0,02, 1,01
135, 0,00, 25479,40, 8270,59, 0,00, 0,00, 0,00, 0,00, 0,00, 0,01, -0,02, 1,01
136, 0,00, 41628,63, 5196,62, 0,00, 0,00, 0,00, 0,00, 0,00, 0,01, -0,02, 1,01
137, 0,00, -5847,91, 47281,18, 0,00, 0,00, 0,00, 0,00, 0,00, 0,01, -0,02, 1,01
138, 0,00, -52090,22, 77726,36, 0,00, 0,00, 0,00, 0,00, 0,00, 0,00, -0,01, 1,01
139, 0,00, -31260,17, 51717,58, 0,00, 0,00, 0,00, 0,00, 0,00, 0,00, -0,01, 1,01
140, 0,00, 25023,00, 8548,80, 0,00, 0,00, 0,00, 0,00, 0,00, 0,00, -0,01, 1,01
141, 0,00, 41765,30, 4968,97, 0,00, 0,00, 0,00, 0,00, 0,00, 0,00, -0,01, 1,01
142, 0,00, -5407,58, 46938,66, 0,00, 0,00, 0,00, 0,00, 0,00, 0,00, -0,01, 1,01
143, 0,00, -52039,44, 77776,58, 0,00, 0,00, 0,00, 0,00, 0,00, 0,00, -0,02, 1,01
144, 0,00, -31792,34, 52169,02, 0,00, 0,00, 0,00, 0,00, 0,00, 0,00, -0,02, 1,01
145, 0,00, 24486,45, 8862,09, 0,00, 0,00, 0,00, 0,00, 0,00, 0,00, -0,02, 1,01
146, 0,00, 41925,59, 4695,52, 0,00, 0,00, 0,00, 0,00, 0,00, 0,00, -0,02, 1,01
147, 0,00, -4992,28, 46514,18, 0,00, 0,00, 0,00, 0,00, 0,00, 0,00, -0,02, 1,01
148, 0,00, -51993,48, 77724,77, 0,00, 0,00, 0,00, 0,00, 0,00, -0,00, -0,03, 1,01
149, 0,00, -32291,72, 52560,53, 0,00, 0,00, 0,00, 0,00, 0,00, -0,00, -0,03, 1,01
150, 0,00, 24085,77, 9121,72, 0,00, 0,00, 0,00, 0,00, 0,00, -0,00, -0,03, 1,01
151, 0,00, 42150,67, 4436,73, 0,00, 0,00, 0,00, 0,00, 0,00, -0,00, -0,03, 1,01
152, 0,00, -4495,65, 46184,31, 0,00, 0,00, 0,00, 0,00, 0,00, -0,00, -0,03, 1,01
153, 0,00, -51914,47, 77753,52, 0,00, 0,00, 0,00, 0,00, 0,00, 0,00, -0,02, 1,01
154, 0,00, -32729,93, 52899,74, 0,00, 0,00, 0,00, 0,00, 0,00, 0,00, -0,02, 1,01
155, 0,00, 23665,31, 9383,73, 0,00, 0,00, 0,00, 0,00, 0,00, 0,00, -0,02, 1,01
156, 0,00, 42333,58, 4195,62, 0,00, 0,00, 0,00, 0,00, 0,00, 0,00, -0,02, 1,01
157, 0,00, -4006,33, 45755,83, 0,00, 0,00, 0,00, 0,00, 0,00, 0,00, -0,02, 1,01
158, 0,00, -51683,54, 77644,84, 0,00, 0,00, 0,00, 0,00, 0,00, 0,00, -0,02, 1,01
159, 0,00, -33179,42, 53302,32, 0,00, 0,00, 0,00, 0,00, 0,00, 0,00, -0,02, 1,01
160, 0,00, 23259,20, 9644,80, 0,00, 0,00, 0,00, 0,00, 0,00, 0,00, -0,02, 1,01
161, 0,00, 42552,54, 3949,31, 0,00, 0,00, 0,00, 0,00, 0,00, 0,00, -0,02, 1,01
162, 0,00, -3475,05, 45331,50, 0,00, 0,00, 0,00, 0,00, 0,00, 0,00, -0,02, 1,01
163, 0,00, -51588,72, 77609,97, 0,00, 0,00, 0,00, 0,00, 0,00, -0,00, -0,01, 1,01
164, 0,00, -33607,16, 53681,02, 0,00, 0,00, 0,00, 0,00, 0,00, -0,00, -0,01, 1,01
165, 0,00, 22862,84, 9934,86, 0,00, 0,00, 0,00, 0,00, 0,00, -0,00, -0,01, 1,01
166, 0,00, 42811,14, 3644,85, 0,00, 0,00, 0,00, 0,00, 0,00, -0,00, -0,01, 1,01
167, 0,00, -2935,12, 44933,89, 0,00, 0,00, 0,00, 0,00, 0,00, -0,00, -0,01, 1,01
168, 0,00, -51351,05, 77540,23, 0,00, 0,00, 0,00, 0,00, 0,00, 0,00, -0,01, 1,01
169, 0,00, -33969,24, 54029,24, 0,00, 0,00, 0,00, 0,00, 0,00, 0,00, -0,01, 1,01
170, 0,00, 22488,00, 10199,39, 0,00, 0,00, 0,00, 0,00, 0,00, 0,00, -0,01, 1,01
171, 0,00, 43072,04, 3398,45, 0,00, 0,00, 0,00, 0,00, 0,00, 0,00, -0,01, 1,01
172, 0,00, -2422,79, 44566,23, 0,00, 0,00, 0,00, 0,00, 0,00, 0,00, -0,01, 1,01
173, 0,00, -51273,56, 77547,34, 0,00, 0,00, 0,00, 0,00, 0,00, 0,00, -0,02, 1,01
174, 0,00, -34399,20, 54380,68, 0,00, 0,00, 0,00, 0,00, 0,00, 0,00, -0,02, 1,01
175, 0,00, 22061,53, 10493,90, 0,00, 0,00, 0,00, 0,00, 0,00, 0,00, -0,02, 1,01
176, 0,00, 43295,53, 3165,19, 0,00, 0,00, 0,00, 0,00, 0,00, 0,00, -0,02, 1,01
177, 0,00, -1898,24, 44173,93, 0,00, 0,00, 0,00, 0,00, 0,00, 0,00, -0,02, 1,01
178, 0,00, -51108,76, 77515,60, 0,00, 0,00, 0,00, 0,00, 0,00, 0,00, -0,02, 1,01
179, 0,00, -34879,36, 54822,14, 0,00, 0,00, 0,00, 0,00, 0,00, 0,00, -0,02, 1,01
180, 0,00, 21606,83, 10808,66, 0,00, 0,00, 0,00, 0,00, 0,00, 0,00, -0,02, 1,01
181, 0,00, 43391,35, 2956,44, 0,00, 0,00, 0,00, 0,00, 0,00, 0,00, -0,02, 1,01
182, 0,00, -1476,38, 43792,68, 0,00, 0,00, 0,00, 0,00, 0,00, 0,00, -0,02, 1,01
183, 0,00, -51033,43, 77466,54, 0,00, 0,00, 0,00, 0,00, 0,00, 0,01, -0,02, 1,01
184, 0,00, -35393,65, 55230,53, 0,00, 0,00, 0,00, 0,00, 0,00, 0,01, -0,02, 1,01
185, 0,00, 21084,00, 11155,60, 0,00, 0,00, 0,00, 0,00, 0,00, 0,01, -0,02, 1,01
186, 0,00, 43495,11, 2760,31, 0,00, 0,00, 0,00, 0,00, 0,00, 0,01, -0,02, 1,01
187, 0,00, -1038,53, 43376,82, 0,00, 0,00, 0,00, 0,00, 0,00, 0,01, -0,02, 1,01
188, 0,00, -50832,63, 77376,38, 0,00, 0,00, 0,00, 0,00, 0,00, 0,00, -0,02, 1,01
189, 0,00, -35835,25, 55644,18, 0,00, 0,00, 0,00, 0,00, 0,00, 0,00, -0,02, 1,01
190, 0,00, 20666,82, 11445,34, 0,00, 0,00, 0,00, 0,00, 0,00, 0,00, -0,02, 1,01
191, 0,00, 43735,72, 2465,49, 0,00, 0,00, 0,00, 0,00, 0,00, 0,00, -0,02, 1,01
192, 0,00, -519,75, 42969,42, 0,00, 0,00, 0,00, 0,00, 0,00, 0,00, -0,02, 1,01
193, 0,00, -50772,95, 77394,39, 0,00, 0,00, 0,00, 0,00, 0,00, 0,01, -0,03, 1,00
194, 0,00, -36304,86, 56039,40, 0,00, 0,00, 0,00, 0,00, 0,00, 0,01, -0,03, 1,00
195, 0,00, 20186,84, 11750,47, 0,00, 0,00, 0,00, 0,00, 0,00, 0,01, -0,03, 1,00
196, 0,00, 43899,90, 2220,85, 0,00, 0,00, 0,00, 0,00, 0,00, 0,01, -0,03, 1,00
197, 0,00, -94,41, 42650,91, 0,00, 0,00, 0,00, 0,00, 0,00, 0,01, -0,03, 1,00
198, 0,00, -50715,91, 77369,02, 0,00, 0,00, 0,00, 0,00, 0,00, 0,01, -0,03, 1,00
199, 0,00, -36792,51, 56413,54, 0,00, 0,00, 0,00, 0,00, 0,00, 0,01, -0,03, 1,00
200, 0,00, 19714,69, 12066,43, 0,00, 0,00, 0,00, 0,00, 0,00, 0,01, -0,03, 1,00
201, 0,00, 44053,59, 2047,58, 0,00, 0,00, 0,00, 0,00, 0,00, 0,01, -0,03, 1,00
202, 0,00, 387,94, 42292,34, 0,00, 0,00, 0,00, 0,00, 0,00, 0,01, -0,03, 1,00
203, 0,00, -50561,03, 77310,37, 0,00, 0,00, 0,00, 0,00, 0,00, 0,00, -0,03, 1,01
204, 0,00, -37297,33, 56787,38, 0,00, 0,00, 0,00, 0,00, 0,00, 0,00, -0,03, 1,01
205, 0,00, 19226,84, 12323,32, 0,00, 0,00, 0,00, 0,00, 0,00, 0,00, -0,03, 1,01
206, 0,00, 44165,59, 1773,14, 0,00, 0,00, 0,00, 0,00, 0,00, 0,00, -0,03, 1,01
207, 0,00, 779,54, 41906,82, 0,00, 0,00, 0,00, 0,00, 0,00, 0,00, -0,03, 1,01
208, 0,00, -50518,02, 77311,53, 0,00, 0,00, 0,00, 0,00, 0,00, 0,00, -0,02, 1,01
209, 0,00, -37775,65, 57166,02, 0,00, 0,00, 0,00, 0,00, 0,00, 0,00, -0,02, 1,01
210, 0,00, 18775,35, 12621,29, 0,00, 0,00, 0,00, 0,00, 0,00, 0,00, -0,02, 1,01
211, 0,00, 44364,66, 1581,34, 0,00, 0,00, 0,00, 0,00, 0,00, 0,00, -0,02, 1,01
212, 0,00, 1349,89, 41495,32, 0,00, 0,00, 0,00, 0,00, 0,00, 0,00, -0,02, 1,01
213, 0,00, -50246,21, 77156,34, 0,00, 0,00, 0,00, 0,00, 0,00, 0,00, -0,02, 1,01
214, 0,00, -38157,49, 57549,19, 0,00, 0,00, 0,00, 0,00, 0,00, 0,00, -0,02, 1,01
215, 0,00, 18368,06, 12924,94, 0,00, 0,00, 0,00, 0,00, 0,00, 0,00, -0,02, 1,01
216, 0,00, 44563,99, 1287,37, 0,00, 0,00, 0,00, 0,00, 0,00, 0,00, -0,02, 1,01
217, 0,00, 1840,11, 41084,61, 0,00, 0,00, 0,00, 0,00, 0,00, 0,00, -0,02, 1,01
218, 0,00, -50059,61, 77122,68, 0,00, 0,00, 0,00, 0,00, 0,00, 0,00, -0,02, 1,01
219, 0,00, -38548,80, 57922,02, 0,00, 0,00, 0,00, 0,00, 0,00, 0,00, -0,02, 1,01
220, 0,00, 17973,39, 13213,55, 0,00, 0,00, 0,00, 0,00, 0,00, 0,00, -0,02, 1,01
221, 0,00, 44786,10, 1084,48, 0,00, 0,00, 0,00, 0,00, 0,00, 0,00, -0,02, 1,01
222, 0,00, 2423,96, 40673,98, 0,00, 0,00, 0,00, 0,00, 0,00, 0,00, -0,02, 1,01
223, 0,00, -49805,56, 77011,63, 0,00, 0,00, 0,00, 0,00, 0,00, 0,00, -0,02, 1,01
224, 0,00, -38956,70, 58306,94, 0,00, 0,00, 0,00, 0,00, 0,00, 0,00, -0,02, 1,01
225, 0,00, 17506,11, 13475,15, 0,00, 0,00, 0,00, 0,00, 0,00, 0,00, -0,02, 1,01
226, 0,00, 44957,76, 816,98, 0,00, 0,00, 0,00, 0,00, 0,00, 0,00, -0,02, 1,01
227, 0,00, 2876,92, 40283,05, 0,00, 0,00, 0,00, 0,00, 0,00, 0,00, -0,02, 1,01
228, 0,00, -49777,36, 77017,00, 0,00, 0,00, 0,00, 0,00, 0,00, 0,00, -0,02, 1,01
229, 0,00, -39444,26, 58681,75, 0,00, 0,00, 0,00, 0,00, 0,00, 0,00, -0,02, 1,01
230, 0,00, 17028,63, 13744,62, 0,00, 0,00, 0,00, 0,00, 0,00, 0,00, -0,02, 1,01
231, 0,00, 45041,80, 586,60, 0,00, 0,00, 0,00, 0,00, 0,00, 0,00, -0,02, 1,01
232, 0,00, 3369,82, 39910,18, 0,00, 0,00, 0,00, 0,00, 0,00, 0,00, -0,02, 1,01
233, 0,00, -49507,23, 76827,39, 0,00, 0,00, 0,00, 0,00, 0,00, 0,00, -0,02, 1,01
234, 0,00, -39873,14, 58970,70, 0,00, 0,00, 0,00, 0,00, 0,00, 0,00, -0,02, 1,01
235, 0,00, 16605,71, 14037,07, 0,00, 0,00, 0,00, 0,00, 0,00, 0,00, -0,02, 1,01
236, 0,00, 45266,48, 385,32, 0,00, 0,00, 0,00, 0,00, 0,00, 0,00, -0,02, 1,01
237, 0,00, 3906,75, 39553,91, 0,00, 0,00, 0,00, 0,00, 0,00, 0,00, -0,02, 1,01
238, 0,00, -49418,16, 76872,63, 0,00, 0,00, 0,00, 0,00, 0,00, 0,00, -0,02, 1,00
239, 0,00, -40317,52, 59352,84, 0,00, 0,00, 0,00, 0,00, 0,00, 0,00, -0,02, 1,00
240, 0,00, 16115,12, 14342,13, 0,00, 0,00, 0,00, 0,00, 0,00, 0,00, -0,02, 1,00
241, 0,00, 45337,23, 127,63, 0,00, 0,00, 0,00, 0,00, 0,00, 0,00, -0,02, 1,00
242, 0,00, 4363,31, 38952,07, 0,00, 0,00, 0,00, 0,00, 0,00, 0,00, -0,02, 1,00
243, 0,00, -49121,78, 76439,05, 0,00, 0,00, 0,00, 0,00, 0,00, 0,00, -0,02, 1,01
244, 0,00, -40790,23, 59601,82, 0,00, 0,00, 0,00, 0,00, 0,00, 0,00, -0,02, 1,01
245, 0,00, 15590,48, 14504,16, 0,00, 0,00, 0,00, 0,00, 0,00, 0,00, -0,02, 1,01
246, 0,00, 45480,28, -208,59, 0,00, 0,00, 0,00, 0,00, 0,00, 0,00, -0,02, 1,01
247, 0,00, 4890,65, 38456,36, 0,00, 0,00, 0,00, 0,00, 0,00, 0,00, -0,02, 1,01
248, 0,00, -48950,92, 76340,46, 0,00, 0,00, 0,00, 0,00, 0,00, 0,00, -0,02, 1,01
249, 0,00, -41157,43, 59912,69, 0,00, 0,00, 0,00, 0,00, 0,00, 0,00, -0,02, 1,01
250, 0,00, 15189,04, 14809,97, 0,00, 0,00, 0,00, 0,00, 0,00, 0,00, -0,02, 1,01
251, 0,00, 45739,74, -470,50, 0,00, 0,00, 0,00, 0,00, 0,00, 0,00, -0,02, 1,01
252, 0,00, 5501,12, 38026,04, 0,00, 0,00, 0,00, 0,00, 0,00, 0,00, -0,02, 1,01
253, 0,00, -48720,45, 76333,95, 0,00, 0,00, 0,00, 0,00, 0,00, 0,01, -0,02, 1,01
254, 0,00, -41548,92, 60305,65, 0,00, 0,00, 0,00, 0,00, 0,00, 0,01, -0,02, 1,01
255, 0,00, 14754,41, 15121,36, 0,00, 0,00, 0,00, 0,00, 0,00, 0,01, -0,02, 1,01
0, 0,00, 45921,37, -712,39, 0,00, 0,00, 0,00, 0,00, 0,00, 0,01, -0,02, 1,01
1, 0,00, 6107,99, 37541,68, 0,00, 0,00, 0,00, 0,00, 0,00, 0,01, -0,02, 1,01
2, 0,00, -48353,32, 76088,15, 0,00, 0,00, 0,00, 0,00, 0,00, 0,01, -0,02, 1,01
3, 0,00, -41877,91, 60632,95, 0,00, 0,00, 0,00, 0,00, 0,00, 0,01, -0,02, 1,01
4, 0,00, 14389,65, 15390,32, 0,00, 0,00, 0,00, 0,00, 0,00, 0,01, -0,02, 1,01
5, 0,00, 46136,14, -908,08, 0,00, 0,00, 0,00, 0,00, 0,00, 0,01, -0,02, 1,01
6, 0,00, 6691,73, 37119,61, 0,00, 0,00, 0,00, 0,00, 0,00, 0,01, -0,02, 1,01
7, 0,00, -47978,44, 75910,05, 0,00, 0,00, 0,00, 0,00, 0,00, 0,00, -0,02, 1,01
8, 0,00, -42212,81, 61011,61, 0,00, 0,00, 0,00, 0,00, 0,00, 0,00, -0,02, 1,01
9, 0,00, 13960,85, 15749,33, 0,00, 0,00, 0,00, 0,00, 0,00, 0,00, -0,02, 1,01
10, 0,00, 46349,27, -1138,06, 0,00, 0,00, 0,00, 0,00, 0,00, 0,00, -0,02, 1,01
11, 0,00, 7307,14, 36687,08, 0,00, 0,00, 0,00, 0,00, 0,00, 0,00, -0,02, 1,01
12, 0,00, -47771,06, 75906,48, 0,00, 0,00, 0,00, 0,00, 0,00, 0,00, -0,03, 1,01
13, 0,00, -42597,55, 61455,88, 0,00, 0,00, 0,00, 0,00, 0,00, 0,00, -0,03, 1,01
14, 0,00, 13522,27, 16131,39, 0,00, 0,00, 0,00, 0,00, 0,00, 0,00, -0,03, 1,01
15, 0,00, 46533,74, -1257,55, 0,00, 0,00, 0,00, 0,00, 0,00, 0,00, -0,03, 1,01
16, 0,00, 7893,56, 36363,09, 0,00, 0,00, 0,00, 0,00, 0,00, 0,00, -0,03, 1,01
17, 0,00, -47429,44, 75779,25, 0,00, 0,00, 0,00, 0,00, 0,00, 0,00, -0,03, 1,01
18, 0,00, -42938,59, 61804,27, 0,00, 0,00, 0,00, 0,00, 0,00, 0,00, -0,03, 1,01
19, 0,00, 13109,39, 16397,08, 0,00, 0,00, 0,00, 0,00, 0,00, 0,00, -0,03, 1,01
20, 0,00, 46715,61, -1512,12, 0,00, 0,00, 0,00, 0,00, 0,00, 0,00, -0,03, 1,01
21, 0,00, 8464,16, 35932,51, 0,00, 0,00, 0,00, 0,00, 0,00, 0,00, -0,03, 1,01
22, 0,00, -47148,10, 75673,15, 0,00, 0,00, 0,00, 0,00, 0,00, 0,00, -0,03, 1,01
23, 0,00, -43313,14, 62142,70, 0,00, 0,00, 0,00, 0,00, 0,00, 0,00, -0,03, 1,01
24, 0,00, 12656,70, 16718,75, 0,00, 0,00, 0,00, 0,00, 0,00, 0,00, -0,03, 1,01
25, 0,00, 46850,82, -1663,82, 0,00, 0,00, 0,00, 0,00, 0,00, 0,00, -0,03, 1,01
26, 0,00, 8992,15, 35549,75, 0,00, 0,00, 0,00, 0,00, 0,00, 0,00, -0,03, 1,01
27, 0,00, -46969,77, 75676,37, 0,00, 0,00, 0,00, 0,00, 0,00, 0,00, -0,02, 1,01
28, 0,00, -43613,32, 62508,08, 0,00, 0,00, 0,00, 0,00, 0,00, 0,00, -0,02, 1,01
29, 0,00, 12224,79, 17093,29, 0,00, 0,00, 0,00, 0,00, 0,00, 0,00, -0,02, 1,01
30, 0,00, 46984,68, -1881,93, 0,00, 0,00, 0,00, 0,00, 0,00, 0,00, -0,02, 1,01
31, 0,00, 9585,08, 35060,61, 0,00, 0,00, 0,00, 0,00, 0,00, 0,00, -0,02, 1,01
32, 0,00, -46542,95, 75424,26, 0,00, 0,00, 0,00, 0,00, 0,00, 0,00, -0,02, 1,01
33, 0,00, -43987,72, 62894,21, 0,00, 0,00, 0,00, 0,00, 0,00, 0,00, -0,02, 1,01
34, 0,00, 11684,78, 17477,81, 0,00, 0,00, 0,00, 0,00, 0,00, 0,00, -0,02, 1,01
35, 0,00, 47017,05, -2019,90, 0,00, 0,00, 0,00, 0,00, 0,00, 0,00, -0,02, 1,01
36, 0,00, 10064,30, 34663,33, 0,00, 0,00, 0,00, 0,00, 0,00, 0,00, -0,02, 1,01
37, 0,00, -46311,07, 75260,51, 0,00, 0,00, 0,00, 0,00, 0,00, 0,00, -0,02, 1,01
38, 0,00, -44435,16, 63256,95, 0,00, 0,00, 0,00, 0,00, 0,00, 0,00, -0,02, 1,01
39, 0,00, 11126,88, 17781,33, 0,00, 0,00, 0,00, 0,00, 0,00, 0,00, -0,02, 1,01
40, 0,00, 47033,46, -2251,51, 0,00, 0,00, 0,00, 0,00, 0,00, 0,00, -0,02, 1,01
41, 0,00, 10619,89, 34076,55, 0,00, 0,00, 0,00, 0,00, 0,00, 0,00, -0,02, 1,01
42, 0,00, -45859,43, 74892,38, 0,00, 0,00, 0,00, 0,00, 0,00, 0,00, -0,02, 1,01
43, 0,00, -44781,92, 63564,54, 0,00, 0,00, 0,00, 0,00, 0,00, 0,00, -0,02, 1,01
44, 0,00, 10601,48, 18096,37, 0,00, 0,00, 0,00, 0,00, 0,00, 0,00, -0,02, 1,01
45, 0,00, 47061,66, -2437,77, 0,00, 0,00, 0,00, 0,00, 0,00, 0,00, -0,02, 1,01
46, 0,00, 11132,13, 33643,75, 0,00, 0,00, 0,00, 0,00, 0,00, 0,00, -0,02, 1,01
47, 0,00, -45506,45, 74615,59, 0,00, 0,00, 0,00, 0,00, 0,00, 0,01, -0,01, 1,00
48, 0,00, -45178,39, 63814,81, 0,00, 0,00, 0,00, 0,00, 0,00, 0,01, -0,01, 1,00
49, 0,00, 10085,44, 18387,15, 0,00, 0,00, 0,00, 0,00, 0,00, 0,01, -0,01, 1,00
50, 0,00, 47112,20, -2624,59, 0,00, 0,00, 0,00, 0,00, 0,00, 0,01, -0,01, 1,00
51, 0,00, 11643,72, 33198,29, 0,00, 0,00, 0,00, 0,00, 0,00, 0,01, -0,01, 1,00
52, 0,00, -45213,13, 74487,14, 0,00, 0,00, 0,00, 0,00, 0,00, 0,01, -0,01, 1,01
53, 0,00, -45576,08, 64204,64, 0,00, 0,00, 0,00, 0,00, 0,00, 0,01, -0,01, 1,01
54, 0,00, 9528,75, 18678,50, 0,00, 0,00, 0,00, 0,00, 0,00, 0,01, -0,01, 1,01
55, 0,00, 47154,82, -2882,91, 0,00, 0,00, 0,00, 0,00, 0,00, 0,01, -0,01, 1,01
56, 0,00, 12160,38, 32692,62, 0,00, 0,00, 0,00, 0,00, 0,00, 0,01, -0,01, 1,01
57, 0,00, -44906,13, 74252,13, 0,00, 0,00, 0,00, 0,00, 0,00, 0,01, -0,03, 1,00
58, 0,00, -45837,66, 64458,41, 0,00, 0,00, 0,00, 0,00, 0,00, 0,01, -0,03, 1,00
59, 0,00, 9195,75, 18890,40, 0,00, 0,00, 0,00, 0,00, 0,00, 0,01, -0,03, 1,00
60, 0,00, 47364,13, -3134,52, 0,00, 0,00, 0,00, 0,00, 0,00, 0,01, -0,03, 1,00
61, 0,00, 12822,99, 32205,33, 0,00, 0,00, 0,00, 0,00, 0,00, 0,01, -0,03, 1,00
62, 0,00, -44486,50, 74071,27, 0,00, 0,00, 0,00, 0,00, 0,00, 0,01, -0,02, 1,02
63, 0,00, -46125,48, 64835,57, 0,00, 0,00, 0,00, 0,00, 0,00, 0,01, -0,02, 1,02
64, 0,00, 8712,24, 19241,90, 0,00, 0,00, 0,00, 0,00, 0,00, 0,01, -0,02, 1,02
65, 0,00, 47428,25, -3277,06, 0,00, 0,00, 0,00, 0,00, 0,00, 0,01, -0,02, 1,02
66, 0,00, 13329,55, 31893,70, 0,00, 0,00, 0,00, 0,00, 0,00, 0,01, -0,02, 1,02
67, 0,00, -44363,23, 74199,77, 0,00, 0,00, 0,00, 0,00, 0,00, 0,01, -0,03, 1,01
68, 0,00, -46424,62, 65186,91, 0,00, 0,00, 0,00, 0,00, 0,00, 0,01, -0,03, 1,01
69, 0,00, 8277,97, 19650,65, 0,00, 0,00, 0,00, 0,00, 0,00, 0,01, -0,03, 1,01
70, 0,00, 47481,54, -3357,05, 0,00, 0,00, 0,00, 0,00, 0,00, 0,01, -0,03, 1,01
71, 0,00, 13962,60, 31347,45, 0,00, 0,00, 0,00, 0,00, 0,00, 0,01, -0,03, 1,01
72, 0,00, -43615,36, 73658,02, 0,00, 0,00, 0,00, 0,00, 0,00, 0,01, -0,02, 1,01
73, 0,00, -46625,31, 65550,94, 0,00, 0,00, 0,00, 0,00, 0,00, 0,01, -0,02, 1,01
74, 0,00, 7840,12, 20079,09, 0,00, 0,00, 0,00, 0,00, 0,00, 0,01, -0,02, 1,01
75, 0,00, 47561,14, -3404,80, 0,00, 0,00, 0,00, 0,00, 0,00, 0,01, -0,02, 1,01
76, 0,00, 14575,75, 31013,80, 0,00, 0,00, 0,00, 0,00, 0,00, 0,01, -0,02, 1,01
77, 0,00, -43285,58, 73660,13, 0,00, 0,00, 0,00, 0,00, 0,00, 0,01, -0,02, 1,01
78, 0,00, -46863,36, 65955,73, 0,00, 0,00, 0,00, 0,00, 0,00, 0,01, -0,02, 1,01
79, 0,00, 7316,87, 20565,41, 0,00, 0,00, 0,00, 0,00, 0,00, 0,01, -0,02, 1,01
80, 0,00, 47546,27, -3440,56, 0,00, 0,00, 0,00, 0,00, 0,00, 0,01, -0,02, 1,01
81, 0,00, 15171,65, 30576,65, 0,00, 0,00, 0,00, 0,00, 0,00, 0,01, -0,02, 1,01
82, 0,00, -42653,52, 73312,55, 0,00, 0,00, 0,00, 0,00, 0,00, 0,00, -0,02, 1,00
83, 0,00, -47147,00, 66413,34, 0,00, 0,00, 0,00, 0,00, 0,00, 0,00, -0,02, 1,00
84, 0,00, 6710,42, 21168,60, 0,00, 0,00, 0,00, 0,00, 0,00, 0,00, -0,02, 1,00
85, 0,00, 47398,86, -3319,66, 0,00, 0,00, 0,00, 0,00, 0,00, 0,00, -0,02, 1,00
86, 0,00, 15640,45, 30252,15, 0,00, 0,00, 0,00, 0,00, 0,00, 0,00, -0,02, 1,00
87, 0,00, -42207,85, 73093,91, 0,00, 0,00, 0,00, 0,00, 0,00, 0,00, -0,02, 1,00
88, 0,00, -47457,33, 66836,03, 0,00, 0,00, 0,00, 0,00, 0,00, 0,01, -0,02, 1,01
89, 0,00, 6165,55, 21642,61, 0,00, 0,00, 0,00, 0,00, 0,00, 0,01, -0,02, 1,01
90, 0,00, 47365,89, -3331,89, 0,00, 0,00, 0,00, 0,00, 0,00, 0,01, -0,02, 1,01
91, 0,00, 16157,70, 29858,96, 0,00, 0,00, 0,00, 0,00, 0,00, 0,01, -0,02, 1,01
92, 0,00, -41805,45, 72887,45, 0,00, 0,00, 0,00, 0,00, 0,00, 0,01, -0,02, 1,01
93, 0,00, -47739,68, 67176,20, 0,00, 0,00, 0,00, 0,00, 0,00, 0,01, -0,01, 1,01
94, 0,00, 5610,04, 22074,11, 0,00, 0,00, 0,00, 0,00, 0,00, 0,01, -0,01, 1,01
95, 0,00, 47314,77, -3389,02, 0,00, 0,00, 0,00, 0,00, 0,00, 0,01, -0,01, 1,01
96, 0,00, 16721,18, 29412,91, 0,00, 0,00, 0,00, 0,00, 0,00, 0,01, -0,01, 1,01
97, 0,00, -41371,16, 72660,09, 0,00, 0,00, 0,00, 0,00, 0,00, 0,01, -0,01, 1,01
98, 0,00, -48060,14, 67505,04, 0,00, 0,00, 0,00, 0,00, 0,00, 0,01, -0,02, 1,01
99, 0,00, 5059,25, 22462,88, 0,00, 0,00, 0,00, 0,00, 0,00, 0,01, -0,02, 1,01
100, 0,00, 47273,25, -3466,11, 0,00, 0,00, 0,00, 0,00, 0,00, 0,01, -0,02, 1,01
101, 0,00, 17230,65, 29028,59, 0,00, 0,00, 0,00, 0,00, 0,00, 0,01, -0,02, 1,01
102, 0,00, -40968,94, 72448,22, 0,00, 0,00, 0,00, 0,00, 0,00, 0,01, -0,02, 1,01
103, 0,00, -48327,53, 67871,88, 0,00, 0,00, 0,00, 0,00, 0,00, 0,00, -0,02, 1,01
104, 0,00, 4510,98, 22908,17, 0,00, 0,00, 0,00, 0,00, 0,00, 0,00, -0,02, 1,01
105, 0,00, 47200,31, -3480,50, 0,00, 0,00, 0,00, 0,00, 0,00, 0,00, -0,02, 1,01
106, 0,00, 17752,85, 28578,67, 0,00, 0,00, 0,00, 0,00, 0,00, 0,00, -0,02, 1,01
107, 0,00, -40468,52, 72118,75, 0,00, 0,00, 0,00, 0,00, 0,00, 0,00, -0,02, 1,01
108, 0,00, -48619,02, 68214,23, 0,00, 0,00, 0,00, 0,00, 0,00, 0,00, -0,02, 1,01
109, 0,00, 3953,33, 23350,82, 0,00, 0,00, 0,00, 0,00, 0,00, 0,00, -0,02, 1,01
110, 0,00, 47141,93, -3507,19, 0,00, 0,00, 0,00, 0,00, 0,00, 0,00, -0,02, 1,01
111, 0,00, 18247,81, 28142,03, 0,00, 0,00, 0,00, 0,00, 0,00, 0,00, -0,02, 1,01
112, 0,00, -40087,50, 71800,80, 0,00, 0,00, 0,00, 0,00, 0,00, 0,00, -0,02, 1,01
113, 0,00, -48960,02, 68514,55, 0,00, 0,00, 0,00, 0,00, 0,00, 0,00, -0,02, 1,01
114, 0,00, 3387,61, 23754,40, 0,00, 0,00, 0,00, 0,00, 0,00, 0,00, -0,02, 1,01
115, 0,00, 47079,07, -3592,73, 0,00, 0,00, 0,00, 0,00, 0,00, 0,00, -0,02, 1,01
116, 0,00, 18783,76, 27624,79, 0,00, 0,00, 0,00, 0,00, 0,00, 0,00, -0,02, 1,01
117, 0,00, -39728,82, 71505,48, 0,00, 0,00, 0,00, 0,00, 0,00, 0,00, -0,02, 1,01
118, 0,00, -49333,76, 68804,23, 0,00, 0,00, 0,00, 0,00, 0,00, 0,00, -0,02, 1,01
119, 0,00, 2810,15, 24135,77, 0,00, 0,00, 0,00, 0,00, 0,00, 0,00, -0,02, 1,01
120, 0,00, 47078,02, -3715,73, 0,00, 0,00, 0,00, 0,00, 0,00, 0,00, -0,02, 1,01
121, 0,00, 19378,52, 27065,41, 0,00, 0,00, 0,00, 0,00, 0,00, 0,00, -0,02, 1,01
122, 0,00, -39352,05, 71256,76, 0,00, 0,00, 0,00, 0,00, 0,00, 0,00, -0,02, 1,01
123, 0,00, -49644,18, 69135,13, 0,00, 0,00, 0,00, 0,00, 0,00, 0,00, -0,02, 1,01
124, 0,00, 2262,42, 24538,17, 0,00, 0,00, 0,00, 0,00, 0,00, 0,00, -0,02, 1,01
125, 0,00, 47049,77, -3827,96, 0,00, 0,00, 0,00, 0,00, 0,00, 0,00, -0,02, 1,01
126, 0,00, 19997,30, 26493,28, 0,00, 0,00, 0,00, 0,00, 0,00, 0,00, -0,02, 1,01
127, 0,00, -38702,60, 70725,92, 0,00, 0,00, 0,00, 0,00, 0,00, 0,00, -0,02, 1,01
128, 0,00, -49883,23, 69438,22, 0,00, 0,00, 0,00, 0,00, 0,00, 0,00, -0,03, 1,00
129, 0,00, 1749,40, 25017,35, 0,00, 0,00, 0,00, 0,00, 0,00, 0,00, -0,03, 1,00
130, 0,00, 47012,38, -3806,97, 0,00, 0,00, 0,00, 0,00, 0,00, 0,00, -0,03, 1,00
131, 0,00, 20553,43, 26094,57, 0,00, 0,00, 0,00, 0,00, 0,00, 0,00, -0,03, 1,00
132, 0,00, -38347,81, 70602,07, 0,00, 0,00, 0,00, 0,00, 0,00, 0,00, -0,03, 1,00
133, 0,00, -50161,49, 69822,22, 0,00, 0,00, 0,00, 0,00, 0,00, 0,00, -0,02, 1,00
134, 0,00, 1194,88, 25476,29, 0,00, 0,00, 0,00, 0,00, 0,00, 0,00, -0,02, 1,00
135, 0,00, 47100,80, -3987,69, 0,00, 0,00, 0,00, 0,00, 0,00, 0,00, -0,02, 1,00
136, 0,00, 21464,20, 25259,13, 0,00, 0,00, 0,00, 0,00, 0,00, 0,00, -0,02, 1,00
137, 0,00, -37537,54, 69970,37, 0,00, 0,00, 0,00, 0,00, 0,00, 0,00, -0,02, 1,00
138, 0,00, -50611,34, 70405,55, 0,00, 0,00, 0,00, 0,00, 0,00, 0,00, -0,02, 1,01
139, 0,00, 503,74, 26167,32, 0,00, 0,00, 0,00, 0,00, 0,00, 0,00, -0,02, 1,01
140, 0,00, 47283,97, -4183,35, 0,00, 0,00, 0,00, 0,00, 0,00, 0,00, -0,02, 1,01
141, 0,00, 22196,18, 24652,45, 0,00, 0,00, 0,00, 0,00, 0,00, 0,00, -0,02, 1,01
142, 0,00, -37382,82, 70025,22, 0,00, 0,00, 0,00, 0,00, 0,00, 0,00, -0,02, 1,01
143, 0,00, -51083,05, 70996,96, 0,00, 0,00, 0,00, 0,00, 0,00, 0,00, -0,02, 1,02
144, 0,00, -47,86, 26607,70, 0,00, 0,00, 0,00, 0,00, 0,00, 0,00, -0,02, 1,02
145, 0,00, 47225,86, -4281,05, 0,00, 0,00, 0,00, 0,00, 0,00, 0,00, -0,02, 1,02
146, 0,00, 22662,68, 24191,31, 0,00, 0,00, 0,00, 0,00, 0,00, 0,00, -0,02, 1,02
147, 0,00, -37028,73, 69811,67, 0,00, 0,00, 0,00, 0,00, 0,00, 0,00, -0,02, 1,02
148, 0,00, -51494,59, 71428,98, 0,00, 0,00, 0,00, 0,00, 0,00, 0,01, -0,02, 1,01
149, 0,00, -631,15, 27026,63, 0,00, 0,00, 0,00, 0,00, 0,00, 0,01, -0,02, 1,01
150, 0,00, 47134,17, -4371,42, 0,00, 0,00, 0,00, 0,00, 0,00, 0,01, -0,02, 1,01
151, 0,00, 23096,28, 23758,29, 0,00, 0,00, 0,00, 0,00, 0,00, 0,01, -0,02, 1,01
152, 0,00, -36732,18, 69578,70, 0,00, 0,00, 0,00, 0,00, 0,00, 0,01, -0,02, 1,01
153, 0,00, -51853,18, 71817,34, 0,00, 0,00, 0,00, 0,00, 0,00, 0,00, -0,03, 1,01
154, 0,00, -1285,99, 27546,15, 0,00, 0,00, 0,00, 0,00, 0,00, 0,00, -0,03, 1,01
155, 0,00, 46879,56, -4274,37, 0,00, 0,00, 0,00, 0,00, 0,00, 0,00, -0,03, 1,01
156, 0,00, 23405,40, 23456,50, 0,00, 0,00, 0,00, 0,00, 0,00, 0,00, -0,03, 1,01
157, 0,00, -36660,26, 69677,38, 0,00, 0,00, 0,00, 0,00, 0,00, 0,00, -0,03, 1,01
158, 0,00, -52249,48, 72158,11, 0,00, 0,00, 0,00, 0,00, 0,00, 0,00, -0,03, 1,01
159, 0,00, -1815,36, 27866,88, 0,00, 0,00, 0,00, 0,00, 0,00, 0,00, -0,03, 1,01
160, 0,00, 46753,57, -4292,29, 0,00, 0,00, 0,00, 0,00, 0,00, 0,00, -0,03, 1,01
161, 0,00, 23823,63, 23139,98, 0,00, 0,00, 0,00, 0,00, 0,00, 0,00, -0,03, 1,01
162, 0,00, -36122,52, 69282,00, 0,00, 0,00, 0,00, 0,00, 0,00, 0,00, -0,03, 1,01
163, 0,00, -52511,15, 72490,46, 0,00, 0,00, 0,00, 0,00, 0,00, 0,00, -0,03, 1,01
164, 0,00, -2405,29, 28313,60, 0,00, 0,00, 0,00, 0,00, 0,00, 0,00, -0,03, 1,01
165, 0,00, 46576,59, -4301,28, 0,00, 0,00, 0,00, 0,00, 0,00, 0,00, -0,03, 1,01
166, 0,00, 24195,00, 22762,70, 0,00, 0,00, 0,00, 0,00, 0,00, 0,00, -0,03, 1,01
167, 0,00, -35952,67, 69232,80, 0,00, 0,00, 0,00, 0,00, 0,00, 0,00, -0,03, 1,01
168, 0,00, -52777,29, 72805,42, 0,00, 0,00, 0,00, 0,00, 0,00, 0,00, -0,02, 1,01
169, 0,00, -2913,95, 28710,46, 0,00, 0,00, 0,00, 0,00, 0,00, 0,00, -0,02, 1,01
170, 0,00, 46367,30, -4177,92, 0,00, 0,00, 0,00, 0,00, 0,00, 0,00, -0,02, 1,01
171, 0,00, 24621,63, 22367,44, 0,00, 0,00, 0,00, 0,00, 0,00, 0,00, -0,02, 1,01
172, 0,00, -35251,32, 68640,84, 0,00, 0,00, 0,00, 0,00, 0,00, 0,00, -0,02, 1,01
173, 0,00, -52888,85, 72997,64, 0,00, 0,00, 0,00, 0,00, 0,00, -0,00, -0,02, 1,02
174, 0,00, -3363,33, 29091,53, 0,00, 0,00, 0,00, 0,00, 0,00, -0,00, -0,02, 1,02
175, 0,00, 46305,26, -4187,24, 0,00, 0,00, 0,00, 0,00, 0,00, -0,00, -0,02, 1,02
176, 0,00, 25174,12, 21948,92, 0,00, 0,00, 0,00, 0,00, 0,00, -0,00, -0,02, 1,02
177, 0,00, -34759,38, 68383,06, 0,00, 0,00, 0,00, 0,00, 0,00, -0,00, -0,02, 1,02
178, 0,00, -52899,47, 73196,04, 0,00, 0,00, 0,00, 0,00, 0,00, -0,00, -0,02, 1,01
179, 0,00, -3628,94, 29433,09, 0,00, 0,00, 0,00, 0,00, 0,00, -0,00, -0,02, 1,01
180, 0,00, 46377,59, -4200,47, 0,00, 0,00, 0,00, 0,00, 0,00, -0,00, -0,02, 1,01
181, 0,00, 25875,00, 21431,16, 0,00, 0,00, 0,00, 0,00, 0,00, -0,00, -0,02, 1,01
182, 0,00, -33956,68, 67923,10, 0,00, 0,00, 0,00, 0,00, 0,00, -0,00, -0,02, 1,01
183, 0,00, -52828,64, 73382,16, 0,00, 0,00, 0,00, 0,00, 0,00, -0,00, -0,02, 1,01
184, 0,00, -3902,32, 29771,43, 0,00, 0,00, 0,00, 0,00, 0,00, -0,00, -0,02, 1,01
185, 0,00, 46494,84, -4250,18, 0,00, 0,00, 0,00, 0,00, 0,00, -0,00, -0,02, 1,01
186, 0,00, 26684,03, 20930,37, 0,00, 0,00, 0,00, 0,00, 0,00, -0,00, -0,02, 1,01
187, 0,00, -32977,81, 67349,29, 0,00, 0,00, 0,00, 0,00, 0,00, -0,00, -0,02, 1,01
188, 0,00, -52447,38, 73346,09, 0,00, 0,00, 0,00, 0,00, 0,00, 0,00, -0,02, 1,01
189, 0,00, -3716,74, 29861,17, 0,00, 0,00, 0,00, 0,00, 0,00, 0,00, -0,02, 1,01
190, 0,00, 47359,28, -4656,99, 0,00, 0,00, 0,00, 0,00, 0,00, 0,00, -0,02, 1,01
191, 0,00, 28458,64, 19976,83, 0,00, 0,00, 0,00, 0,00, 0,00, 0,00, -0,02, 1,01
192, 0,00, -33740,49, 68171,74, 0,00, 0,00, 0,00, 0,00, 0,00, 0,00, -0,02, 1,01
193, 0,00, -53804,13, 74284,99, 0,00, 0,00, 0,00, 0,00, 0,00, 0,00, -0,02, 1,01
194, 0,00, 757,93, 26928,71, 0,00, 0,00, 0,00, 0,00, 0,00, 0,00, -0,02, 1,01
195, 0,00, 57243,51, -10218,01, 0,00, 0,00, 0,00, 0,00, 0,00, 0,00, -0,02, 1,01
196, 0,00, 32244,98, 19340,12, 0,00, 0,00, 0,00, 0,00, 0,00, 0,00, -0,02, 1,01
197, 0,00, -37320,93, 71832,67, 0,00, 0,00, 0,00, 0,00, 0,00, 0,00, -0,02, 1,01
198, 0,00, -55399,87, 75483,91, 0,00, 0,00, 0,00, 0,00, 0,00, 0,01, -0,03, 1,01
199, 0,00, 5157,06, 24241,67, 0,00, 0,00, 0,00, 0,00, 0,00, 0,01, -0,03, 1,01
200, 0,00, 63082,90, -13070,99, 0,00, 0,00, 0,00, 0,00, 0,00, 0,01, -0,03, 1,01
201, 0,00, 34442,76, 19188,41, 0,00, 0,00, 0,00, 0,00, 0,00, 0,01, -0,03, 1,01
202, 0,00, -37147,52, 72606,76, 0,00, 0,00, 0,00, 0,00, 0,00, 0,01, -0,03, 1,01
203, 0,00, -54703,84, 75702,74, 0,00, 0,00, 0,00, 0,00, 0,00, 0,00, -0,03, 1,01
204, 0,00, 7483,90, 23434,13, 0,00, 0,00, 0,00, 0,00, 0,00, 0,00, -0,03, 1,01
205, 0,00, 66348,47, -14342,38, 0,00, 0,00, 0,00, 0,00, 0,00, 0,00, -0,03, 1,01
206, 0,00, 37114,76, 18362,65, 0,00, 0,00, 0,00, 0,00, 0,00, 0,00, -0,03, 1,01
207, 0,00, -35283,14, 72262,43, 0,00, 0,00, 0,00, 0,00, 0,00, 0,00, -0,03, 1,01
208, 0,00, -52823,90, 75402,29, 0,00, 0,00, 0,00, 0,00, 0,00, 0,00, -0,02, 1,01
209, 0,00, 10238,84, 22599,74, 0,00, 0,00, 0,00, 0,00, 0,00, 0,00, -0,02, 1,01
210, 0,00, 69926,09, -15667,39, 0,00, 0,00, 0,00, 0,00, 0,00, 0,00, -0,02, 1,01
211, 0,00, 40917,21, 17007,35, 0,00, 0,00, 0,00, 0,00, 0,00, 0,00, -0,02, 1,01
212, 0,00, -31751,01, 71268,55, 0,00, 0,00, 0,00, 0,00, 0,00, 0,00, -0,02, 1,01
213, 0,00, -49530,39, 74687,91, 0,00, 0,00, 0,00, 0,00, 0,00, 0,00, -0,02, 1,01
214, 0,00, 13880,34, 21713,31, 0,00, 0,00, 0,00, 0,00, 0,00, 0,00, -0,02, 1,01
215, 0,00, 74251,77, -16975,90, 0,00, 0,00, 0,00, 0,00, 0,00, 0,00, -0,02, 1,01
216, 0,00, 45813,21, 15341,41, 0,00, 0,00, 0,00, 0,00, 0,00, 0,00, -0,02, 1,01
217, 0,00, -26804,75, 69707,40, 0,00, 0,00, 0,00, 0,00, 0,00, 0,00, -0,02, 1,01
218, 0,00, -45249,03, 73734,47, 0,00, 0,00, 0,00, 0,00, 0,00, 0,00, -0,02, 1,01
219, 0,00, 18113,61, 20806,41, 0,00, 0,00, 0,00, 0,00, 0,00, 0,00, -0,02, 1,01
220, 0,00, 79146,48, -18372,55, 0,00, 0,00, 0,00, 0,00, 0,00, 0,00, -0,02, 1,01
221, 0,00, 51448,82, 13540,46, 0,00, 0,00, 0,00, 0,00, 0,00, 0,00, -0,02, 1,01
222, 0,00, -21069,18, 68004,87, 0,00, 0,00, 0,00, 0,00, 0,00, 0,00, -0,02, 1,01
223, 0,00, -39869,74, 72528,46, 0,00, 0,00, 0,00, 0,00, 0,00, 0,00, -0,02, 1,01
224, 0,00, 23698,93, 19466,42, 0,00, 0,00, 0,00, 0,00, 0,00, 0,00, -0,02, 1,01
225, 0,00, 85640,28, -20317,20, 0,00, 0,00, 0,00, 0,00, 0,00, 0,00, -0,02, 1,01
226, 0,00, 59034,40, 10958,32, 0,00, 0,00, 0,00, 0,00, 0,00, 0,00, -0,02, 1,01
227, 0,00, -12982,65, 65357,68, 0,00, 0,00, 0,00, 0,00, 0,00, 0,00, -0,02, 1,01
228, 0,00, -32084,47, 70472,57, 0,00, 0,00, 0,00, 0,00, 0,00, 0,00, -0,02, 1,01
229, 0,00, 31612,61, 17433,15, 0,00, 0,00, 0,00, 0,00, 0,00, 0,00, -0,02, 1,01
230, 0,00, 94275,88, -22804,08, 0,00, 0,00, 0,00, 0,00, 0,00, 0,00, -0,02, 1,01
231, 0,00, 68448,95, 8050,56, 0,00, 0,00, 0,00, 0,00, 0,00, 0,00, -0,02, 1,01
232, 0,00, -3586,61, 62703,82, 0,00, 0,00, 0,00, 0,00, 0,00, 0,00, -0,02, 1,01
233, 0,00, -23547,21, 68603,24, 0,00, 0,00, 0,00, 0,00, 0,00, 0,01, -0,02, 1,01
234, 0,00, 39715,85, 15801,77, 0,00, 0,00, 0,00, 0,00, 0,00, 0,01, -0,02, 1,01
235, 0,00, 102532,37, -24743,60, 0,00, 0,00, 0,00, 0,00, 0,00, 0,01, -0,02, 1,01
236, 0,00, 76996,46, 5787,38, 0,00, 0,00, 0,00, 0,00, 0,00, 0,01, -0,02, 1,01
237, 0,00, 4596,73, 60795,34, 0,00, 0,00, 0,00, 0,00, 0,00, 0,01, -0,02, 1,01
238, 0,00, -16486,13, 67568,18, 0,00, 0,00, 0,00, 0,00, 0,00, 0,01, -0,02, 1,02
239, 0,00, 46091,60, 15010,13, 0,00, 0,00, 0,00, 0,00, 0,00, 0,01, -0,02, 1,02
240, 0,00, 109041,15, -25936,20, 0,00, 0,00, 0,00, 0,00, 0,00, 0,01, -0,02, 1,02
241, 0,00, 83937,10, 4193,21, 0,00, 0,00, 0,00, 0,00, 0,00, 0,01, -0,02, 1,02
242, 0,00, 11293,62, 59394,91, 0,00, 0,00, 0,00, 0,00, 0,00, 0,01, -0,02, 1,02
243, 0,00, -10794,86, 66837,05, 0,00, 0,00, 0,00, 0,00, 0,00, 0,00, -0,02, 1,01
244, 0,00, 51202,55, 14509,03, 0,00, 0,00, 0,00, 0,00, 0,00, 0,00, -0,02, 1,01
245, 0,00, 114393,01, -26736,60, 0,00, 0,00, 0,00, 0,00, 0,00, 0,00, -0,02, 1,01
246, 0,00, 89895,31, 2840,46, 0,00, 0,00, 0,00, 0,00, 0,00, 0,00, -0,02, 1,01
247, 0,00, 16843,96, 58358,28, 0,00, 0,00, 0,00, 0,00, 0,00, 0,00, -0,02, 1,01
248, 0,00, -6072,81, 66491,27, 0,00, 0,00, 0,00, 0,00, 0,00, 0,01, -0,02, 1,01
249, 0,00, 55470,99, 14300,42, 0,00, 0,00, 0,00, 0,00, 0,00, 0,01, -0,02, 1,01
250, 0,00, 118845,77, -27427,42, 0,00, 0,00, 0,00, 0,00, 0,00, 0,01, -0,02, 1,01
251, 0,00, 94907,09, 1704,81, 0,00, 0,00, 0,00, 0,00, 0,00, 0,01, -0,02, 1,01
252, 0,00, 21649,16, 57537,55, 0,00, 0,00, 0,00, 0,00, 0,00, 0,01, -0,02, 1,01
253, 0,00, -2222,30, 66382,17, 0,00, 0,00, 0,00, 0,00, 0,00, 0,00, -0,03, 1,01
254, 0,00, 58770,98, 14309,99, 0,00, 0,00, 0,00, 0,00, 0,00, 0,00, -0,03, 1,01
255, 0,00, 122353,35, -27796,99, 0,00, 0,00, 0,00, 0,00, 0,00, 0,00, -0,03, 1,01
0, 0,00, 98870,39, 929,47, 0,00, 0,00, 0,00, 0,00, 0,00, 0,00, -0,03, 1,01
1, 0,00, 25396,01, 56937,82, 0,00, 0,00, 0,00, 0,00, 0,00, 0,00, -0,03, 1,01
2, 0,00, 398,93, 66608,58, 0,00, 0,00, 0,00, 0,00, 0,00, 0,00, -0,03, 1,01
3, 0,00, 60704,96, 14863,82, 0,00, 0,00, 0,00, 0,00, 0,00, 0,00, -0,03, 1,01
4, 0,00, 124288,13, -27591,44, 0,00, 0,00, 0,00, 0,00, 0,00, 0,00, -0,03, 1,01
5, 0,00, 100999,57, 709,13, 0,00, 0,00, 0,00, 0,00, 0,00, 0,00, -0,03, 1,01
6, 0,00, 26686,89, 57380,57, 0,00, 0,00, 0,00, 0,00, 0,00, 0,00, -0,03, 1,01
7, 0,00, 343,64, 67977,20, 0,00, 0,00, 0,00, 0,00, 0,00, 0,00, -0,03, 1,02
8, 0,00, 59701,62, 16451,69, 0,00, 0,00, 0,00, 0,00, 0,00, 0,00, -0,03, 1,02
9, 0,00, 123023,98, -26484,56, 0,00, 0,00, 0,00, 0,00, 0,00, 0,00, -0,03, 1,02
10, 0,00, 99976,96, 1325,37, 0,00, 0,00, 0,00, 0,00, 0,00, 0,00, -0,03, 1,02
11, 0,00, 25533,38, 58154,90, 0,00, 0,00, 0,00, 0,00, 0,00, 0,00, -0,03, 1,02
12, 0,00, -1877,79, 69593,96, 0,00, 0,00, 0,00, 0,00, 0,00, 0,00, -0,02, 1,01
13, 0,00, 56946,86, 18145,01, 0,00, 0,00, 0,00, 0,00, 0,00, 0,00, -0,02, 1,01
14, 0,00, 120606,50, -25347,30, 0,00, 0,00, 0,00, 0,00, 0,00, 0,00, -0,02, 1,01
15, 0,00, 98118,32, 1877,75, 0,00, 0,00, 0,00, 0,00, 0,00, 0,00, -0,02, 1,01
16, 0,00, 23458,58, 58859,23, 0,00, 0,00, 0,00, 0,00, 0,00, 0,00, -0,02, 1,01
17, 0,00, -4894,70, 71134,38, 0,00, 0,00, 0,00, 0,00, 0,00, 0,00, -0,03, 1,01
18, 0,00, 53304,08, 19920,46, 0,00, 0,00, 0,00, 0,00, 0,00, 0,00, -0,03, 1,01
19, 0,00, 116943,59, -23906,46, 0,00, 0,00, 0,00, 0,00, 0,00, 0,00, -0,03, 1,01
20, 0,00, 94962,21, 2786,17, 0,00, 0,00, 0,00, 0,00, 0,00, 0,00, -0,03, 1,01
21, 0,00, 20269,50, 59859,64, 0,00, 0,00, 0,00, 0,00, 0,00, 0,00, -0,03, 1,01
22, 0,00, -9180,11, 72955,78, 0,00, 0,00, 0,00, 0,00, 0,00, 0,00, -0,02, 1,01
23, 0,00, 48444,97, 21955,74, 0,00, 0,00, 0,00, 0,00, 0,00, 0,00, -0,02, 1,01
24, 0,00, 112389,51, -22394,68, 0,00, 0,00, 0,00, 0,00, 0,00, 0,00, -0,02, 1,01
25, 0,00, 91049,47, 3712,69, 0,00, 0,00, 0,00, 0,00, 0,00, 0,00, -0,02, 1,01
26, 0,00, 16148,22, 61073,82, 0,00, 0,00, 0,00, 0,00, 0,00, 0,00, -0,02, 1,01
27, 0,00, -13998,99, 74703,46, 0,00, 0,00, 0,00, 0,00, 0,00, 0,00, -0,02, 1,01
28, 0,00, 43335,56, 23706,17, 0,00, 0,00, 0,00, 0,00, 0,00, 0,00, -0,02, 1,01
29, 0,00, 107643,88, -21072,64, 0,00, 0,00, 0,00, 0,00, 0,00, 0,00, -0,02, 1,01
30, 0,00, 87058,01, 4483,58, 0,00, 0,00, 0,00, 0,00, 0,00, 0,00, -0,02, 1,01
31, 0,00, 12159,48, 61946,70, 0,00, 0,00, 0,00, 0,00, 0,00, 0,00, -0,02, 1,01
32, 0,00, -18784,47, 76250,65, 0,00, 0,00, 0,00, 0,00, 0,00, 0,00, -0,02, 1,01
33, 0,00, 38275,98, 25292,03, 0,00, 0,00, 0,00, 0,00, 0,00, 0,00, -0,02, 1,01
34, 0,00, 103107,09, -19927,59, 0,00, 0,00, 0,00, 0,00, 0,00, 0,00, -0,02, 1,01
35, 0,00, 83142,05, 5209,65, 0,00, 0,00, 0,00, 0,00, 0,00, 0,00, -0,02, 1,01
36, 0,00, 7971,35, 62896,89, 0,00, 0,00, 0,00, 0,00, 0,00, 0,00, -0,02, 1,01
37, 0,00, -23797,21, 77705,32, 0,00, 0,00, 0,00, 0,00, 0,00, 0,01, -0,01, 1,01
38, 0,00, 33083,84, 26730,85, 0,00, 0,00, 0,00, 0,00, 0,00, 0,01, -0,01, 1,01
39, 0,00, 98427,13, -18813,69, 0,00, 0,00, 0,00, 0,00, 0,00, 0,01, -0,01, 1,01
40, 0,00, 79200,86, 5902,00, 0,00, 0,00, 0,00, 0,00, 0,00, 0,01, -0,01, 1,01
41, 0,00, 3982,95, 63670,26, 0,00, 0,00, 0,00, 0,00, 0,00, 0,01, -0,01, 1,01
42, 0,00, -28603,84, 79107,60, 0,00, 0,00, 0,00, 0,00, 0,00, 0,01, -0,01, 1,01
43, 0,00, 27901,14, 28275,11, 0,00, 0,00, 0,00, 0,00, 0,00, 0,01, -0,01, 1,01
44, 0,00, 93710,00, -17770,02, 0,00, 0,00, 0,00, 0,00, 0,00, 0,01, -0,01, 1,01
45, 0,00, 75344,91, 6293,20, 0,00, 0,00, 0,00, 0,00, 0,00, 0,01, -0,01, 1,01
46, 0,00, 16,00, 64292,33, 0,00, 0,00, 0,00, 0,00, 0,00, 0,01, -0,01, 1,01
47, 0,00, -33327,16, 80239,54, 0,00, 0,00, 0,00, 0,00, 0,00, 0,01, -0,01, 1,01
48, 0,00, 22866,04, 29548,25, 0,00, 0,00, 0,00, 0,00, 0,00, 0,01, -0,01, 1,01
49, 0,00, 89075,86, -16699,75, 0,00, 0,00, 0,00, 0,00, 0,00, 0,01, -0,01, 1,01
50, 0,00, 71517,51, 6865,58, 0,00, 0,00, 0,00, 0,00, 0,00, 0,01, -0,01, 1,01
51, 0,00, -3678,49, 64703,85, 0,00, 0,00, 0,00, 0,00, 0,00, 0,01, -0,01, 1,01
52, 0,00, -38030,62, 81310,68, 0,00, 0,00, 0,00, 0,00, 0,00, 0,01, -0,03, 1,01
53, 0,00, 17651,24, 30948,18, 0,00, 0,00, 0,00, 0,00, 0,00, 0,01, -0,03, 1,01
54, 0,00, 84297,77, -15567,52, 0,00, 0,00, 0,00, 0,00, 0,00, 0,01, -0,03, 1,01
55, 0,00, 67542,16, 7421,14, 0,00, 0,00, 0,00, 0,00, 0,00, 0,01, -0,03, 1,01
56, 0,00, -7666,87, 65298,96, 0,00, 0,00, 0,00, 0,00, 0,00, 0,01, -0,03, 1,01
57, 0,00, -42811,34, 82452,19, 0,00, 0,00, 0,00, 0,00, 0,00, -0,00, -0,04, 1,01
58, 0,00, 12417,49, 32371,79, 0,00, 0,00, 0,00, 0,00, 0,00, -0,00, -0,04, 1,01
59, 0,00, 79419,73, -14380,37, 0,00, 0,00, 0,00, 0,00, 0,00, -0,00, -0,04, 1,01
60, 0,00, 63660,14, 7947,16, 0,00, 0,00, 0,00, 0,00, 0,00, -0,00, -0,04, 1,01
61, 0,00, -11388,50, 65607,30, 0,00, 0,00, 0,00, 0,00, 0,00, -0,00, -0,04, 1,01
62, 0,00, -47297,45, 83453,59, 0,00, 0,00, 0,00, 0,00, 0,00, -0,00, -0,03, 1,01
63, 0,00, 7791,77, 33521,07, 0,00, 0,00, 0,00, 0,00, 0,00, -0,00, -0,03, 1,01
64, 0,00, 75480,23, -13587,22, 0,00, 0,00, 0,00, 0,00, 0,00, -0,00, -0,03, 1,01
65, 0,00, 60441,66, 8340,31, 0,00, 0,00, 0,00, 0,00, 0,00, -0,00, -0,03, 1,01
66, 0,00, -14897,04, 66259,09, 0,00, 0,00, 0,00, 0,00, 0,00, -0,00, -0,03, 1,01
67, 0,00, -51516,07, 84361,70, 0,00, 0,00, 0,00, 0,00, 0,00, -0,00, -0,03, 1,01
68, 0,00, 3727,24, 34390,53, 0,00, 0,00, 0,00, 0,00, 0,00, 0,00, -0,01, 1,02
69, 0,00, 72269,70, -13069,20, 0,00, 0,00, 0,00, 0,00, 0,00, 0,00, -0,01, 1,02
70, 0,00, 58091,58, 8349,40, 0,00, 0,00, 0,00, 0,00, 0,00, 0,00, -0,01, 1,02
71, 0,00, -17154,43, 66216,99, 0,00, 0,00, 0,00, 0,00, 0,00, 0,00, -0,01, 1,02
72, 0,00, -54313,42, 84819,99, 0,00, 0,00, 0,00, 0,00, 0,00, 0,00, -0,01, 1,02
73, 0,00, 1008,87, 34891,32, 0,00, 0,00, 0,00, 0,00, 0,00, 0,01, -0,01, 1,02
74, 0,00, 70371,83, -13003,17, 0,00, 0,00, 0,00, 0,00, 0,00, 0,01, -0,01, 1,02
75, 0,00, 57256,02, 7820,52, 0,00, 0,00, 0,00, 0,00, 0,00, 0,01, -0,01, 1,02
76, 0,00, -17891,32, 65883,28, 0,00, 0,00, 0,00, 0,00, 0,00, 0,01, -0,01, 1,02
77, 0,00, -55621,75, 85169,73, 0,00, 0,00, 0,00, 0,00, 0,00, 0,01, -0,01, 1,02
78, 0,00, -552,20, 35425,97, 0,00, 0,00, 0,00, 0,00, 0,00, 0,01, -0,01, 1,02
79, 0,00, 69185,82, -12956,48, 0,00, 0,00, 0,00, 0,00, 0,00, 0,01, -0,01, 1,02
80, 0,00, 56927,66, 7191,23, 0,00, 0,00, 0,00, 0,00, 0,00, 0,01, -0,01, 1,02
81, 0,00, -18157,01, 65453,75, 0,00, 0,00, 0,00, 0,00, 0,00, 0,01, -0,01, 1,02
82, 0,00, -56757,54, 85558,74, 0,00, 0,00, 0,00, 0,00, 0,00, 0,01, -0,01, 1,02
83, 0,00, -2219,39, 36059,58, 0,00, 0,00, 0,00, 0,00, 0,00, 0,01, -0,01, 1,01
84, 0,00, 67871,34, -12715,01, 0,00, 0,00, 0,00, 0,00, 0,00, 0,01, -0,01, 1,01
85, 0,00, 56383,14, 6858,92, 0,00, 0,00, 0,00, 0,00, 0,00, 0,01, -0,01, 1,01
86, 0,00, -18579,26, 65199,77, 0,00, 0,00, 0,00, 0,00, 0,00, 0,01, -0,01, 1,01
87, 0,00, -58070,90, 86145,03, 0,00, 0,00, 0,00, 0,00, 0,00, 0,01, -0,01, 1,01
88, 0,00, -4195,44, 36931,32, 0,00, 0,00, 0,00, 0,00, 0,00, 0,01, -0,02, 1,01
89, 0,00, 65973,54, -12308,50, 0,00, 0,00, 0,00, 0,00, 0,00, 0,01, -0,02, 1,01
90, 0,00, 55092,67, 6647,43, 0,00, 0,00, 0,00, 0,00, 0,00, 0,01, -0,02, 1,01
91, 0,00, -20144,49, 65437,73, 0,00, 0,00, 0,00, 0,00, 0,00, 0,01, -0,02, 1,01
92, 0,00, -60394,99, 87093,08, 0,00, 0,00, 0,00, 0,00, 0,00, 0,01, -0,02, 1,01
93, 0,00, -6752,55, 37900,27, 0,00, 0,00, 0,00, 0,00, 0,00, 0,00, -0,02, 1,01
94, 0,00, 63934,97, -11823,27, 0,00, 0,00, 0,00, 0,00, 0,00, 0,00, -0,02, 1,01
95, 0,00, 54195,40, 6324,94, 0,00, 0,00, 0,00, 0,00, 0,00, 0,00, -0,02, 1,01
96, 0,00, -20518,52, 64885,57, 0,00, 0,00, 0,00, 0,00, 0,00, 0,00, -0,02, 1,01
97, 0,00, -61333,43, 87143,95, 0,00, 0,00, 0,00, 0,00, 0,00, 0,00, -0,02, 1,01
98, 0,00, -7971,39, 38218,46, 0,00, 0,00, 0,00, 0,00, 0,00, -0,01, -0,03, 1,01
99, 0,00, 63416,12, -11917,88, 0,00, 0,00, 0,00, 0,00, 0,00, -0,01, -0,03, 1,01
100, 0,00, 54859,49, 5486,64, 0,00, 0,00, 0,00, 0,00, 0,00, -0,01, -0,03, 1,01
101, 0,00, -19642,56, 64085,04, 0,00, 0,00, 0,00, 0,00, 0,00, -0,01, -0,03, 1,01
102, 0,00, -61064,25, 86872,53, 0,00, 0,00, 0,00, 0,00, 0,00, -0,01, -0,03, 1,01
103, 0,00, -7845,33, 38109,97, 0,00, 0,00, 0,00, 0,00, 0,00, -0,00, -0,03, 1,01
104, 0,00, 64172,55, -12361,65, 0,00, 0,00, 0,00, 0,00, 0,00, -0,00, -0,03, 1,01
105, 0,00, 56755,52, 4361,18, 0,00, 0,00, 0,00, 0,00, 0,00, -0,00, -0,03, 1,01
106, 0,00, -17633,78, 63064,33, 0,00, 0,00, 0,00, 0,00, 0,00, -0,00, -0,03, 1,01
107, 0,00, -59598,11, 86338,73, 0,00, 0,00, 0,00, 0,00, 0,00, -0,00, -0,03, 1,01
108, 0,00, -6453,35, 37653,86, 0,00, 0,00, 0,00, 0,00, 0,00, -0,01, -0,03, 1,01
109, 0,00, 66153,27, -13115,94, 0,00, 0,00, 0,00, 0,00, 0,00, -0,01, -0,03, 1,01
110, 0,00, 59967,61, 2909,88, 0,00, 0,00, 0,00, 0,00, 0,00, -0,01, -0,03, 1,01
111, 0,00, -13837,70, 61385,89, 0,00, 0,00, 0,00, 0,00, 0,00, -0,01, -0,03, 1,01
112, 0,00, -56243,00, 85272,57, 0,00, 0,00, 0,00, 0,00, 0,00, -0,01, -0,03, 1,01
113, 0,00, -3424,53, 36949,78, 0,00, 0,00, 0,00, 0,00, 0,00, 0,00, -0,02, 1,01
114, 0,00, 69938,70, -14361,13, 0,00, 0,00, 0,00, 0,00, 0,00, 0,00, -0,02, 1,01
115, 0,00, 65072,45, 807,28, 0,00, 0,00, 0,00, 0,00, 0,00, 0,00, -0,02, 1,01
116, 0,00, -8183,17, 59110,62, 0,00, 0,00, 0,00, 0,00, 0,00, 0,00, -0,02, 1,01
117, 0,00, -51017,21, 83520,60, 0,00, 0,00, 0,00, 0,00, 0,00, 0,00, -0,02, 1,01
118, 0,00, 1655,26, 35443,25, 0,00, 0,00, 0,00, 0,00, 0,00, 0,00, -0,02, 1,01
119, 0,00, 75805,83, -16215,61, 0,00, 0,00, 0,00, 0,00, 0,00, 0,00, -0,02, 1,01
120, 0,00, 72375,13, -1848,58, 0,00, 0,00, 0,00, 0,00, 0,00, 0,00, -0,02, 1,01
121, 0,00, -393,32, 56328,70, 0,00, 0,00, 0,00, 0,00, 0,00, 0,00, -0,02, 1,01
122, 0,00, -43642,36, 81236,05, 0,00, 0,00, 0,00, 0,00, 0,00, 0,00, -0,02, 1,01
123, 0,00, 8795,84, 33487,98, 0,00, 0,00, 0,00, 0,00, 0,00, 0,00, -0,01, 1,01
124, 0,00, 83365,05, -18408,92, 0,00, 0,00, 0,00, 0,00, 0,00, 0,00, -0,01, 1,01
125, 0,00, 80680,34, -4564,27, 0,00, 0,00, 0,00, 0,00, 0,00, 0,00, -0,01, 1,01
126, 0,00, 7579,43, 53943,12, 0,00, 0,00, 0,00, 0,00, 0,00, 0,00, -0,01, 1,01
127, 0,00, -37289,86, 80002,34, 0,00, 0,00, 0,00, 0,00, 0,00, 0,00, -0,01, 1,01
128, 0,00, 13777,64, 32920,92, 0,00, 0,00, 0,00, 0,00, 0,00, 0,00, -0,01, 1,01
129, 0,00, 87896,55, -18984,95, 0,00, 0,00, 0,00, 0,00, 0,00, 0,00, -0,01, 1,01
130, 0,00, 85643,81, -5687,04, 0,00, 0,00, 0,00, 0,00, 0,00, 0,00, -0,01, 1,01
131, 0,00, 12701,09, 52672,11, 0,00, 0,00, 0,00, 0,00, 0,00, 0,00, -0,01, 1,01
132, 0,00, -32851,68, 79201,41, 0,00, 0,00, 0,00, 0,00, 0,00, 0,00, -0,01, 1,01
133, 0,00, 17717,09, 32401,22, 0,00, 0,00, 0,00, 0,00, 0,00, 0,00, -0,01, 1,01
134, 0,00, 92637,67, -20096,36, 0,00, 0,00, 0,00, 0,00, 0,00, 0,00, -0,01, 1,01
135, 0,00, 91836,03, -7665,40, 0,00, 0,00, 0,00, 0,00, 0,00, 0,00, -0,01, 1,01
136, 0,00, 19149,25, 50740,16, 0,00, 0,00, 0,00, 0,00, 0,00, 0,00, -0,01, 1,01
137, 0,00, -27244,90, 78077,39, 0,00, 0,00, 0,00, 0,00, 0,00, 0,00, -0,01, 1,01
138, 0,00, 22557,25, 31677,54, 0,00, 0,00, 0,00, 0,00, 0,00, 0,00, -0,01, 1,01
139, 0,00, 97007,38, -20675,12, 0,00, 0,00, 0,00, 0,00, 0,00, 0,00, -0,01, 1,01
140, 0,00, 96275,84, -8572,99, 0,00, 0,00, 0,00, 0,00, 0,00, 0,00, -0,01, 1,01
141, 0,00, 22949,18, 50124,86, 0,00, 0,00, 0,00, 0,00, 0,00, 0,00, -0,01, 1,01
142, 0,00, -25004,18, 78323,77, 0,00, 0,00, 0,00, 0,00, 0,00, 0,00, -0,01, 1,01
143, 0,00, 23710,86, 32472,01, 0,00, 0,00, 0,00, 0,00, 0,00, 0,00, -0,02, 1,01
144, 0,00, 98253,59, -20200,03, 0,00, 0,00, 0,00, 0,00, 0,00, 0,00, -0,02, 1,01
145, 0,00, 98511,58, -9016,72, 0,00, 0,00, 0,00, 0,00, 0,00, 0,00, -0,02, 1,01
146, 0,00, 25364,85, 49566,40, 0,00, 0,00, 0,00, 0,00, 0,00, 0,00, -0,02, 1,01
147, 0,00, -23472,04, 78260,07, 0,00, 0,00, 0,00, 0,00, 0,00, 0,00, -0,02, 1,01
148, 0,00, 24601,47, 32772,37, 0,00, 0,00, 0,00, 0,00, 0,00, -0,00, -0,02, 1,01
149, 0,00, 99305,80, -19962,57, 0,00, 0,00, 0,00, 0,00, 0,00, -0,00, -0,02, 1,01
150, 0,00, 100324,75, -9318,22, 0,00, 0,00, 0,00, 0,00, 0,00, -0,00, -0,02, 1,01
151, 0,00, 27035,48, 49299,27, 0,00, 0,00, 0,00, 0,00, 0,00, -0,00, -0,02, 1,01
152, 0,00, -22713,64, 78629,30, 0,00, 0,00, 0,00, 0,00, 0,00, -0,00, -0,02, 1,01
153, 0,00, 24502,50, 33598,71, 0,00, 0,00, 0,00, 0,00, 0,00, -0,00, -0,01, 1,01
154, 0,00, 99188,68, -19358,40, 0,00, 0,00, 0,00, 0,00, 0,00, -0,00, -0,01, 1,01
155, 0,00, 101000,06, -9451,30, 0,00, 0,00, 0,00, 0,00, 0,00, -0,00, -0,01, 1,01
156, 0,00, 27886,35, 48998,71, 0,00, 0,00, 0,00, 0,00, 0,00, -0,00, -0,01, 1,01
157, 0,00, -22695,47, 78938,65, 0,00, 0,00, 0,00, 0,00, 0,00, -0,00, -0,01, 1,01
158, 0,00, 23505,81, 34587,51, 0,00, 0,00, 0,00, 0,00, 0,00, 0,00, -0,01, 1,00
159, 0,00, 97666,37, -18126,41, 0,00, 0,00, 0,00, 0,00, 0,00, 0,00, -0,01, 1,00
160, 0,00, 99584,23, -8578,69, 0,00, 0,00, 0,00, 0,00, 0,00, 0,00, -0,01, 1,00
161, 0,00, 26004,82, 49918,46, 0,00, 0,00, 0,00, 0,00, 0,00, 0,00, -0,01, 1,00
162, 0,00, -25818,66, 80399,76, 0,00, 0,00, 0,00, 0,00, 0,00, 0,00, -0,01, 1,00
163, 0,00, 19381,93, 36546,11, 0,00, 0,00, 0,00, 0,00, 0,00, -0,00, -0,01, 1,00
164, 0,00, 93541,29, -16260,71, 0,00, 0,00, 0,00, 0,00, 0,00, -0,00, -0,01, 1,00
165, 0,00, 96381,32, -7474,96, 0,00, 0,00, 0,00, 0,00, 0,00, -0,00, -0,01, 1,00
166, 0,00, 23134,95, 50690,69, 0,00, 0,00, 0,00, 0,00, 0,00, -0,00, -0,01, 1,00
167, 0,00, -29264,06, 81657,76, 0,00, 0,00, 0,00, 0,00, 0,00, -0,00, -0,01, 1,00
168, 0,00, 15319,73, 38275,50, 0,00, 0,00, 0,00, 0,00, 0,00, 0,00, -0,02, 1,01
169, 0,00, 89741,98, -14778,41, 0,00, 0,00, 0,00, 0,00, 0,00, 0,00, -0,02, 1,01
170, 0,00, 93452,55, -6692,65, 0,00, 0,00, 0,00, 0,00, 0,00, 0,00, -0,02, 1,01
171, 0,00, 20200,57, 51486,26, 0,00, 0,00, 0,00, 0,00, 0,00, 0,00, -0,02, 1,01
172, 0,00, -33259,35, 83069,43, 0,00, 0,00, 0,00, 0,00, 0,00, 0,00, -0,02, 1,01
173, 0,00, 10288,71, 40257,19, 0,00, 0,00, 0,00, 0,00, 0,00, 0,00, -0,03, 1,01
174, 0,00, 84503,31, -12773,80, 0,00, 0,00, 0,00, 0,00, 0,00, 0,00, -0,03, 1,01
175, 0,00, 88548,65, -5123,22, 0,00, 0,00, 0,00, 0,00, 0,00, 0,00, -0,03, 1,01
176, 0,00, 14788,25, 53178,29, 0,00, 0,00, 0,00, 0,00, 0,00, 0,00, -0,03, 1,01
177, 0,00, -39873,43, 85385,70, 0,00, 0,00, 0,00, 0,00, 0,00, 0,00, -0,03, 1,01
178, 0,00, 2984,18, 42849,03, 0,00, 0,00, 0,00, 0,00, 0,00, 0,01, -0,04, 1,00
179, 0,00, 77209,80, -10334,69, 0,00, 0,00, 0,00, 0,00, 0,00, 0,01, -0,04, 1,00
180, 0,00, 82426,41, -3646,64, 0,00, 0,00, 0,00, 0,00, 0,00, 0,01, -0,04, 1,00
181, 0,00, 9080,13, 54439,53, 0,00, 0,00, 0,00, 0,00, 0,00, 0,01, -0,04, 1,00
182, 0,00, -46059,95, 87134,98, 0,00, 0,00, 0,00, 0,00, 0,00, 0,01, -0,04, 1,00
183, 0,00, -3598,32, 44889,81, 0,00, 0,00, 0,00, 0,00, 0,00, 0,01, -0,03, 1,01
184, 0,00, 71051,25, -8642,93, 0,00, 0,00, 0,00, 0,00, 0,00, 0,01, -0,03, 1,01
185, 0,00, 77439,25, -2782,57, 0,00, 0,00, 0,00, 0,00, 0,00, 0,01, -0,03, 1,01
186, 0,00, 4729,43, 54985,25, 0,00, 0,00, 0,00, 0,00, 0,00, 0,01, -0,03, 1,01
187, 0,00, -50841,25, 88162,01, 0,00, 0,00, 0,00, 0,00, 0,00, 0,01, -0,03, 1,01
188, 0,00, -9031,51, 46399,14, 0,00, 0,00, 0,00, 0,00, 0,00, 0,01, -0,03, 1,01
189, 0,00, 66209,75, -7603,86, 0,00, 0,00, 0,00, 0,00, 0,00, 0,01, -0,03, 1,01
190, 0,00, 73891,69, -2638,24, 0,00, 0,00, 0,00, 0,00, 0,00, 0,01, -0,03, 1,01
191, 0,00, 1644,80, 55083,14, 0,00, 0,00, 0,00, 0,00, 0,00, 0,01, -0,03, 1,01
192, 0,00, -54535,95, 88970,52, 0,00, 0,00, 0,00, 0,00, 0,00, 0,01, -0,03, 1,01
193, 0,00, -13135,32, 47539,81, 0,00, 0,00, 0,00, 0,00, 0,00, 0,00, -0,02, 1,00
194, 0,00, 62741,59, -6972,05, 0,00, 0,00, 0,00, 0,00, 0,00, 0,00, -0,02, 1,00
195, 0,00, 71979,66, -3011,72, 0,00, 0,00, 0,00, 0,00, 0,00, 0,00, -0,02, 1,00
196, 0,00, 447,84, 54473,86, 0,00, 0,00, 0,00, 0,00, 0,00, 0,00, -0,02, 1,00
197, 0,00, -56096,04, 88896,44, 0,00, 0,00, 0,00, 0,00, 0,00, 0,00, -0,02, 1,00
198, 0,00, -15179,05, 47930,05, 0,00, 0,00, 0,00, 0,00, 0,00, -0,00, -0,02, 1,01
199, 0,00, 61471,09, -7077,19, 0,00, 0,00, 0,00, 0,00, 0,00, -0,00, -0,02, 1,01
200, 0,00, 72302,33, -4131,14, 0,00, 0,00, 0,00, 0,00, 0,00, -0,00, -0,02, 1,01
201, 0,00, 1596,50, 53155,75, 0,00, 0,00, 0,00, 0,00, 0,00, -0,00, -0,02, 1,01
202, 0,00, -55074,68, 88003,80, 0,00, 0,00, 0,00, 0,00, 0,00, -0,00, -0,02, 1,01
203, 0,00, -14210,39, 47274,07, 0,00, 0,00, 0,00, 0,00, 0,00, -0,00, -0,02, 1,01
204, 0,00, 63357,56, -8271,17, 0,00, 0,00, 0,00, 0,00, 0,00, -0,00, -0,02, 1,01
205, 0,00, 75937,28, -6382,52, 0,00, 0,00, 0,00, 0,00, 0,00, -0,00, -0,02, 1,01
206, 0,00, 5991,12, 50779,61, 0,00, 0,00, 0,00, 0,00, 0,00, -0,00, -0,02, 1,01
207, 0,00, -51105,90, 86350,58, 0,00, 0,00, 0,00, 0,00, 0,00, -0,00, -0,02, 1,01
208, 0,00, -10971,76, 46204,79, 0,00, 0,00, 0,00, 0,00, 0,00, -0,00, -0,02, 1,01
209, 0,00, 66663,92, -9460,15, 0,00, 0,00, 0,00, 0,00, 0,00, -0,00, -0,02, 1,01
210, 0,00, 79756,81, -7947,43, 0,00, 0,00, 0,00, 0,00, 0,00, -0,00, -0,02, 1,01
211, 0,00, 9557,56, 49465,62, 0,00, 0,00, 0,00, 0,00, 0,00, -0,00, -0,02, 1,01
212, 0,00, -48667,21, 85757,07, 0,00, 0,00, 0,00, 0,00, 0,00, -0,00, -0,02, 1,01
213, 0,00, -9438,45, 46040,84, 0,00, 0,00, 0,00, 0,00, 0,00, 0,00, -0,02, 1,01
214, 0,00, 68328,09, -9772,96, 0,00, 0,00, 0,00, 0,00, 0,00, 0,00, -0,02, 1,01
215, 0,00, 82710,95, -9098,08, 0,00, 0,00, 0,00, 0,00, 0,00, 0,00, -0,02, 1,01
216, 0,00, 13169,67, 48022,23, 0,00, 0,00, 0,00, 0,00, 0,00, 0,00, -0,02, 1,01
217, 0,00, -45325,40, 84656,36, 0,00, 0,00, 0,00, 0,00, 0,00, 0,00, -0,02, 1,01
218, 0,00, -6278,22, 45135,32, 0,00, 0,00, 0,00, 0,00, 0,00, 0,00, -0,02, 1,01
219, 0,00, 71999,30, -10964,80, 0,00, 0,00, 0,00, 0,00, 0,00, 0,00, -0,02, 1,01
220, 0,00, 87817,72, -11099,61, 0,00, 0,00, 0,00, 0,00, 0,00, 0,00, -0,02, 1,01
221, 0,00, 19244,87, 45639,60, 0,00, 0,00, 0,00, 0,00, 0,00, 0,00, -0,02, 1,01
222, 0,00, -39269,46, 82519,48, 0,00, 0,00, 0,00, 0,00, 0,00, 0,00, -0,02, 1,01
223, 0,00, -444,38, 43382,45, 0,00, 0,00, 0,00, 0,00, 0,00, 0,00, -0,02, 1,01
224, 0,00, 78724,49, -13162,43, 0,00, 0,00, 0,00, 0,00, 0,00, 0,00, -0,02, 1,01
225, 0,00, 96279,84, -14266,54, 0,00, 0,00, 0,00, 0,00, 0,00, 0,00, -0,02, 1,01
226, 0,00, 28176,21, 42514,85, 0,00, 0,00, 0,00, 0,00, 0,00, 0,00, -0,02, 1,01
227, 0,00, -30973,64, 80016,00, 0,00, 0,00, 0,00, 0,00, 0,00, 0,00, -0,02, 1,01
228, 0,00, 7804,94, 40950,76, 0,00, 0,00, 0,00, 0,00, 0,00, 0,00, -0,03, 1,01
229, 0,00, 87096,48, -15459,45, 0,00, 0,00, 0,00, 0,00, 0,00, 0,00, -0,03, 1,01
230, 0,00, 105486,80, -17027,96, 0,00, 0,00, 0,00, 0,00, 0,00, 0,00, -0,03, 1,01
231, 0,00, 37664,88, 39616,88, 0,00, 0,00, 0,00, 0,00, 0,00, 0,00, -0,03, 1,01
232, 0,00, -22751,64, 78072,14, 0,00, 0,00, 0,00, 0,00, 0,00, 0,00, -0,03, 1,01
233, 0,00, 13600,61, 40605,52, 0,00, 0,00, 0,00, 0,00, 0,00, 0,00, -0,02, 1,00
234, 0,00, 91809,77, -15460,41, 0,00, 0,00, 0,00, 0,00, 0,00, 0,00, -0,02, 1,00
235, 0,00, 110131,45, -17470,64, 0,00, 0,00, 0,00, 0,00, 0,00, 0,00, -0,02, 1,00
