%OpenBCI Raw EEG Data
%
%Sample Rate = 250.0 Hz
%First Column = SampleIndex
%Other Columns = EEG data in microvolts followed by Accel Data (in G) interleaved with Aux Data
0, 0,00, -10865,32, 61103,54, 0,00, 0,00, 0,00, 0,00, 0,00, -0,01, -0,00, 0,48
1, 0,00, -22008,22, 63910,52, 0,00, 0,00, 0,00, 0,00, 0,00, -0,01, -0,00, 0,48
2, 0,00, 16556,70, 47421,13, 0,00, 0,00, 0,00, 0,00, 0,00, -0,01, -0,01, 0,98
3, 0,00, 52539,50, 34160,68, 0,00, 0,00, 0,00, 0,00, 0,00, -0,01, -0,01, 0,98
4, 0,00, 34131,76, 42935,51, 0,00, 0,00, 0,00, 0,00, 0,00, -0,01, -0,01, 0,98
5, 0,00, -10642,22, 61004,19, 0,00, 0,00, 0,00, 0,00, 0,00, -0,01, -0,01, 0,98
6, 0,00, -22154,02, 63946,28, 0,00, 0,00, 0,00, 0,00, 0,00, -0,01, -0,01, 0,98
7, 0,00, 16336,08, 47484,63, 0,00, 0,00, 0,00, 0,00, 0,00, -0,01, -0,01, 0,97
8, 0,00, 52564,75, 34112,29, 0,00, 0,00, 0,00, 0,00, 0,00, -0,01, -0,01, 0,97
9, 0,00, 34363,82, 42806,81, 0,00, 0,00, 0,00, 0,00, 0,00, -0,01, -0,01, 0,97
10, 0,00, -10454,74, 60926,59, 0,00, 0,00, 0,00, 0,00, 0,00, -0,01, -0,01, 0,97
11, 0,00, -22266,56, 63988,01, 0,00, 0,00, 0,00, 0,00, 0,00, -0,01, -0,01, 0,97
12, 0,00, 16017,24, 47594,68, 0,00, 0,00, 0,00, 0,00, 0,00, -0,01, -0,01, 0,98
13, 0,00, 52453,35, 34143,65, 0,00, 0,00, 0,00, 0,00, 0,00, -0,01, -0,01, 0,98
14, 0,00, 34636,82, 42702,34, 0,00, 0,00, 0,00, 0,00, 0,00, -0,01, -0,01, 0,98
15, 0,00, -10189,80, 60838,68, 0,00, 0,00, 0,00, 0,00, 0,00, -0,01, -0,01, 0,98
16, 0,00, -22402,91, 64065,91, 0,00, 0,00, 0,00, 0,00, 0,00, -0,01, -0,01, 0,98
17, 0,00, 15762,70, 47718,11, 0,00, 0,00, 0,00, 0,00, 0,00, -0,01, -0,01, 0,97
18, 0,00, 52386,81, 34181,92, 0,00, 0,00, 0,00, 0,00, 0,00, -0,01, -0,01, 0,97
19, 0,00, 34857,75, 42637,54, 0,00, 0,00, 0,00, 0,00, 0,00, -0,01, -0,01, 0,97
20, 0,00, -9984,68, 60782,06, 0,00, 0,00, 0,00, 0,00, 0,00, -0,01, -0,01, 0,97
21, 0,00, -22491,78, 64122,68, 0,00, 0,00, 0,00, 0,00, 0,00, -0,01, -0,01, 0,97
22, 0,00, 15495,01, 47807,45, 0,00, 0,00, 0,00, 0,00, 0,00, -0,01, -0,01, 0,97
23, 0,00, 52290,65, 34187,30, 0,00, 0,00, 0,00, 0,00, 0,00, -0,01, -0,01, 0,97
24, 0,00, 35070,98, 42535,79, 0,00, 0,00, 0,00, 0,00, 0,00, -0,01, -0,01, 0,97
25, 0,00, -9789,80, 60732,32, 0,00, 0,00, 0,00, 0,00, 0,00, -0,01, -0,01, 0,97
26, 0,00, -22634,09, 64211,98, 0,00, 0,00, 0,00, 0,00, 0,00, -0,01, -0,01, 0,97
27, 0,00, 15250,46, 47925,25, 0,00, 0,00, 0,00, 0,00, 0,00, -0,01, -0,01, 0,97
28, 0,00, 52258,91, 34185,94, 0,00, 0,00, 0,00, 0,00, 0,00, -0,01, -0,01, 0,97
29, 0,00, 35320,98, 42439,10, 0,00, 0,00, 0,00, 0,00, 0,00, -0,01, -0,01, 0,97
30, 0,00, -9578,08, 60638,70, 0,00, 0,00, 0,00, 0,00, 0,00, -0,01, -0,01, 0,97
31, 0,00, -22751,26, 64244,34, 0,00, 0,00, 0,00, 0,00, 0,00, -0,01, -0,01, 0,97
32, 0,00, 15012,41, 47995,21, 0,00, 0,00, 0,00, 0,00, 0,00, -0,01, -0,01, 0,97
33, 0,00, 52208,82, 34166,09, 0,00, 0,00, 0,00, 0,00, 0,00, -0,01, -0,01, 0,98
34, 0,00, 35538,76, 42323,74, 0,00, 0,00, 0,00, 0,00, 0,00, -0,01, -0,01, 0,98
35, 0,00, -9348,42, 60543,88, 0,00, 0,00, 0,00, 0,00, 0,00, -0,01, -0,01, 0,98
36, 0,00, -22859,49, 64290,86, 0,00, 0,00, 0,00, 0,00, 0,00, -0,01, -0,01, 0,98
37, 0,00, 14702,11, 48126,34, 0,00, 0,00, 0,00, 0,00, 0,00, -0,01, -0,01, 0,98
38, 0,00, 52104,62, 34207,73, 0,00, 0,00, 0,00, 0,00, 0,00, -0,01, -0,01, 0,97
39, 0,00, 35746,90, 42230,45, 0,00, 0,00, 0,00, 0,00, 0,00, -0,01, -0,01, 0,97
40, 0,00, -9101,32, 60450,94, 0,00, 0,00, 0,00, 0,00, 0,00, -0,01, -0,01, 0,97
41, 0,00, -22945,43, 64347,18, 0,00, 0,00, 0,00, 0,00, 0,00, -0,01, -0,01, 0,97
42, 0,00, 14419,29, 48257,57, 0,00, 0,00, 0,00, 0,00, 0,00, -0,01, -0,01, 0,97
43, 0,00, 51954,64, 34262,52, 0,00, 0,00, 0,00, 0,00, 0,00, -0,01, -0,01, 0,98
44, 0,00, 36000,05, 42153,18, 0,00, 0,00, 0,00, 0,00, 0,00, -0,01, -0,01, 0,98
45, 0,00, -8871,88, 60382,83, 0,00, 0,00, 0,00, 0,00, 0,00, -0,01, -0,01, 0,98
46, 0,00, -23099,19, 64429,41, 0,00, 0,00, 0,00, 0,00, 0,00, -0,01, -0,01, 0,98
47, 0,00, 14148,97, 48389,49, 0,00, 0,00, 0,00, 0,00, 0,00, -0,01, -0,01, 0,98
48, 0,00, 51873,10, 34300,56, 0,00, 0,00, 0,00, 0,00, 0,00, -0,01, -0,01, 0,97
49, 0,00, 36173,37, 42072,93, 0,00, 0,00, 0,00, 0,00, 0,00, -0,01, -0,01, 0,97
50, 0,00, -8672,72, 60308,49, 0,00, 0,00, 0,00, 0,00, 0,00, -0,01, -0,01, 0,97
51, 0,00, -23247,33, 64500,23, 0,00, 0,00, 0,00, 0,00, 0,00, -0,01, -0,01, 0,97
52, 0,00, 13830,01, 48512,25, 0,00, 0,00, 0,00, 0,00, 0,00, -0,01, -0,01, 0,97
53, 0,00, 51766,50, 34322,71, 0,00, 0,00, 0,00, 0,00, 0,00, -0,01, -0,01, 0,97
54, 0,00, 36372,95, 41971,70, 0,00, 0,00, 0,00, 0,00, 0,00, -0,01, -0,01, 0,98
55, 0,00, -8476,09, 60215,66, 0,00, 0,00, 0,00, 0,00, 0,00, -0,01, -0,01, 0,98
56, 0,00, -23371,01, 64534,80, 0,00, 0,00, 0,00, 0,00, 0,00, -0,01, -0,01, 0,98
57, 0,00, 13559,95, 48599,82, 0,00, 0,00, 0,00, 0,00, 0,00, -0,01, -0,01, 0,98
58, 0,00, 51708,90, 34331,16, 0,00, 0,00, 0,00, 0,00, 0,00, -0,01, -0,01, 0,98
59, 0,00, 36612,87, 41884,84, 0,00, 0,00, 0,00, 0,00, 0,00, -0,01, -0,01, 0,97
60, 0,00, -8281,12, 60145,37, 0,00, 0,00, 0,00, 0,00, 0,00, -0,01, -0,01, 0,97
61, 0,00, -23548,77, 64616,52, 0,00, 0,00, 0,00, 0,00, 0,00, -0,01, -0,01, 0,97
62, 0,00, 13264,44, 48732,01, 0,00, 0,00, 0,00, 0,00, 0,00, -0,01, -0,01, 0,97
63, 0,00, 51585,25, 34381,63, 0,00, 0,00, 0,00, 0,00, 0,00, -0,01, -0,01, 0,97
64, 0,00, 36722,37, 41823,64, 0,00, 0,00, 0,00, 0,00, 0,00, -0,01, -0,01, 0,98
65, 0,00, -8165,16, 60102,86, 0,00, 0,00, 0,00, 0,00, 0,00, -0,01, -0,01, 0,98
66, 0,00, -23798,26, 64727,50, 0,00, 0,00, 0,00, 0,00, 0,00, -0,01, -0,01, 0,98
67, 0,00, 12859,27, 48903,07, 0,00, 0,00, 0,00, 0,00, 0,00, -0,01, -0,01, 0,98
68, 0,00, 51434,22, 34454,07, 0,00, 0,00, 0,00, 0,00, 0,00, -0,01, -0,01, 0,98
69, 0,00, 36857,89, 41788,53, 0,00, 0,00, 0,00, 0,00, 0,00, -0,01, -0,01, 0,97
70, 0,00, -8009,99, 60079,52, 0,00, 0,00, 0,00, 0,00, 0,00, -0,01, -0,01, 0,97
71, 0,00, -23937,24, 64821,35, 0,00, 0,00, 0,00, 0,00, 0,00, -0,01, -0,01, 0,97
72, 0,00, 12516,95, 49070,62, 0,00, 0,00, 0,00, 0,00, 0,00, -0,01, -0,01, 0,97
73, 0,00, 51242,60, 34526,00, 0,00, 0,00, 0,00, 0,00, 0,00, -0,01, -0,01, 0,97
74, 0,00, 37062,77, 41698,54, 0,00, 0,00, 0,00, 0,00, 0,00, -0,01, -0,01, 0,97
75, 0,00, -7804,60, 60002,85, 0,00, 0,00, 0,00, 0,00, 0,00, -0,01, -0,01, 0,97
76, 0,00, -24077,75, 64885,57, 0,00, 0,00, 0,00, 0,00, 0,00, -0,01, -0,01, 0,97
77, 0,00, 12209,19, 49177,61, 0,00, 0,00, 0,00, 0,00, 0,00, -0,01, -0,01, 0,97
78, 0,00, 51096,27, 34557,41, 0,00, 0,00, 0,00, 0,00, 0,00, -0,01, -0,01, 0,97
79, 0,00, 37212,41, 41631,78, 0,00, 0,00, 0,00, 0,00, 0,00, -0,01, -0,00, 0,97
80, 0,00, -7624,20, 59920,29, 0,00, 0,00, 0,00, 0,00, 0,00, -0,01, -0,00, 0,97
81, 0,00, -24209,98, 64934,07, 0,00, 0,00, 0,00, 0,00, 0,00, -0,01, -0,00, 0,97
82, 0,00, 11907,65, 49295,95, 0,00, 0,00, 0,00, 0,00, 0,00, -0,01, -0,00, 0,97
83, 0,00, 50929,86, 34591,74, 0,00, 0,00, 0,00, 0,00, 0,00, -0,01, -0,00, 0,97
84, 0,00, 37427,82, 41524,62, 0,00, 0,00, 0,00, 0,00, 0,00, -0,01, -0,00, 0,97
85, 0,00, -7356,94, 59813,13, 0,00, 0,00, 0,00, 0,00, 0,00, -0,01, -0,01, 0,97
86, 0,00, -24255,53, 64956,13, 0,00, 0,00, 0,00, 0,00, 0,00, -0,01, -0,01, 0,97
87, 0,00, 11720,92, 49366,42, 0,00, 0,00, 0,00, 0,00, 0,00, -0,01, -0,01, 0,97
88, 0,00, 50984,48, 34568,22, 0,00, 0,00, 0,00, 0,00, 0,00, -0,01, -0,01, 0,97
89, 0,00, 37757,53, 41404,32, 0,00, 0,00, 0,00, 0,00, 0,00, -0,01, -0,01, 0,97
90, 0,00, -6978,15, 59685,01, 0,00, 0,00, 0,00, 0,00, 0,00, -0,01, -0,01, 0,97
91, 0,00, -24240,40, 64975,11, 0,00, 0,00, 0,00, 0,00, 0,00, -0,01, -0,01, 0,97
92, 0,00, 11552,63, 49433,63, 0,00, 0,00, 0,00, 0,00, 0,00, -0,01, -0,01, 0,97
93, 0,00, 50947,92, 34558,81, 0,00, 0,00, 0,00, 0,00, 0,00, -0,01, -0,01, 0,97
94, 0,00, 38018,26, 41277,43, 0,00, 0,00, 0,00, 0,00, 0,00, -0,01, -0,01, 0,97
95, 0,00, -6712,83, 59561,63, 0,00, 0,00, 0,00, 0,00, 0,00, -0,01, -0,01, 0,98
96, 0,00, -24268,00, 64969,01, 0,00, 0,00, 0,00, 0,00, 0,00, -0,01, -0,01, 0,98
97, 0,00, 11344,14, 49520,64, 0,00, 0,00, 0,00, 0,00, 0,00, -0,01, -0,01, 0,98
98, 0,00, 50848,29, 34592,09, 0,00, 0,00, 0,00, 0,00, 0,00, -0,01, -0,01, 0,98
99, 0,00, 38308,50, 41150,21, 0,00, 0,00, 0,00, 0,00, 0,00, -0,01, -0,01, 0,98
100, 0,00, -6412,36, 59443,95, 0,00, 0,00, 0,00, 0,00, 0,00, -0,01, -0,02, 0,98
101, 0,00, -24313,42, 64990,20, 0,00, 0,00, 0,00, 0,00, 0,00, -0,01, -0,02, 0,98
102, 0,00, 11111,07, 49589,73, 0,00, 0,00, 0,00, 0,00, 0,00, -0,01, -0,02, 0,98
103, 0,00, 50863,94, 34544,78, 0,00, 0,00, 0,00, 0,00, 0,00, -0,01, -0,02, 0,98
104, 0,00, 38560,22, 41016,48, 0,00, 0,00, 0,00, 0,00, 0,00, -0,01, -0,02, 0,98
105, 0,00, -6124,13, 59295,96, 0,00, 0,00, 0,00, 0,00, 0,00, -0,01, -0,01, 0,98
106, 0,00, -24307,21, 64965,25, 0,00, 0,00, 0,00, 0,00, 0,00, -0,01, -0,01, 0,98
107, 0,00, 10945,56, 49637,77, 0,00, 0,00, 0,00, 0,00, 0,00, -0,01, -0,01, 0,98
108, 0,00, 50713,29, 34565,27, 0,00, 0,00, 0,00, 0,00, 0,00, -0,01, -0,01, 0,98
109, 0,00, 38790,13, 40902,82, 0,00, 0,00, 0,00, 0,00, 0,00, -0,01, -0,01, 0,98
110, 0,00, -5886,76, 59212,09, 0,00, 0,00, 0,00, 0,00, 0,00, -0,01, -0,01, 0,98
111, 0,00, -24417,69, 65015,25, 0,00, 0,00, 0,00, 0,00, 0,00, -0,01, -0,01, 0,98
112, 0,00, 10679,26, 49748,37, 0,00, 0,00, 0,00, 0,00, 0,00, -0,01, -0,01, 0,98
113, 0,00, 50717,85, 34578,71, 0,00, 0,00, 0,00, 0,00, 0,00, -0,01, -0,01, 0,98
114, 0,00, 39060,92, 40819,67, 0,00, 0,00, 0,00, 0,00, 0,00, -0,01, -0,01, 0,98
115, 0,00, -5541,02, 59110,08, 0,00, 0,00, 0,00, 0,00, 0,00, -0,01, -0,01, 0,98
116, 0,00, -24430,61, 65060,88, 0,00, 0,00, 0,00, 0,00, 0,00, -0,01, -0,01, 0,98
117, 0,00, 10418,53, 49872,46, 0,00, 0,00, 0,00, 0,00, 0,00, -0,01, -0,01, 0,98
118, 0,00, 50579,54, 34632,75, 0,00, 0,00, 0,00, 0,00, 0,00, -0,01, -0,01, 0,98
119, 0,00, 39238,00, 40744,93, 0,00, 0,00, 0,00, 0,00, 0,00, -0,01, -0,01, 0,98
120, 0,00, -5339,94, 59029,34, 0,00, 0,00, 0,00, 0,00, 0,00, -0,01, -0,01, 0,98
121, 0,00, -24500,69, 65102,79, 0,00, 0,00, 0,00, 0,00, 0,00, -0,01, -0,01, 0,97
122, 0,00, 10188,77, 49980,87, 0,00, 0,00, 0,00, 0,00, 0,00, -0,01, -0,01, 0,97
123, 0,00, 50500,03, 34664,61, 0,00, 0,00, 0,00, 0,00, 0,00, -0,01, -0,01, 0,97
124, 0,00, 39508,34, 40628,30, 0,00, 0,00, 0,00, 0,00, 0,00, -0,01, -0,01, 0,97
125, 0,00, -5041,91, 58899,21, 0,00, 0,00, 0,00, 0,00, 0,00, -0,01, -0,01, 0,97
126, 0,00, -24580,99, 65105,62, 0,00, 0,00, 0,00, 0,00, 0,00, -0,01, -0,01, 0,98
127, 0,00, 9940,31, 50041,04, 0,00, 0,00, 0,00, 0,00, 0,00, -0,01, -0,01, 0,98
128, 0,00, 50407,96, 34642,88, 0,00, 0,00, 0,00, 0,00, 0,00, -0,01, -0,01, 0,98
129, 0,00, 39676,34, 40506,97, 0,00, 0,00, 0,00, 0,00, 0,00, -0,01, -0,01, 0,98
130, 0,00, -4808,55, 58772,08, 0,00, 0,00, 0,00, 0,00, 0,00, -0,01, -0,01, 0,98
131, 0,00, -24631,00, 65130,10, 0,00, 0,00, 0,00, 0,00, 0,00, -0,01, -0,01, 0,97
132, 0,00, 9677,43, 50141,96, 0,00, 0,00, 0,00, 0,00, 0,00, -0,01, -0,01, 0,97
133, 0,00, 50266,01, 34689,19, 0,00, 0,00, 0,00, 0,00, 0,00, -0,01, -0,01, 0,97
134, 0,00, 39926,54, 40419,30, 0,00, 0,00, 0,00, 0,00, 0,00, -0,01, -0,01, 0,97
135, 0,00, -4517,94, 58677,71, 0,00, 0,00, 0,00, 0,00, 0,00, -0,01, -0,01, 0,97
136, 0,00, -24661,15, 65158,04, 0,00, 0,00, 0,00, 0,00, 0,00, -0,01, -0,01, 0,97
137, 0,00, 9435,72, 50257,14, 0,00, 0,00, 0,00, 0,00, 0,00, -0,01, -0,01, 0,97
138, 0,00, 50168,02, 34736,20, 0,00, 0,00, 0,00, 0,00, 0,00, -0,01, -0,01, 0,97
139, 0,00, 40161,84, 40321,11, 0,00, 0,00, 0,00, 0,00, 0,00, -0,01, -0,01, 0,97
140, 0,00, -4232,35, 58560,88, 0,00, 0,00, 0,00, 0,00, 0,00, -0,01, -0,01, 0,97
141, 0,00, -24720,07, 65183,41, 0,00, 0,00, 0,00, 0,00, 0,00, -0,01, -0,01, 0,97
142, 0,00, 9185,87, 50353,98, 0,00, 0,00, 0,00, 0,00, 0,00, -0,01, -0,01, 0,97
143, 0,00, 50034,13, 34768,67, 0,00, 0,00, 0,00, 0,00, 0,00, -0,01, -0,01, 0,97
144, 0,00, 40388,95, 40233,94, 0,00, 0,00, 0,00, 0,00, 0,00, -0,01, -0,01, 0,97
145, 0,00, -3902,26, 58448,91, 0,00, 0,00, 0,00, 0,00, 0,00, -0,01, -0,01, 0,97
146, 0,00, -24686,94, 65193,53, 0,00, 0,00, 0,00, 0,00, 0,00, -0,01, -0,01, 0,97
147, 0,00, 8974,72, 50448,13, 0,00, 0,00, 0,00, 0,00, 0,00, -0,01, -0,01, 0,97
148, 0,00, 49908,31, 34774,30, 0,00, 0,00, 0,00, 0,00, 0,00, -0,01, -0,01, 0,97
149, 0,00, 40687,80, 40059,64, 0,00, 0,00, 0,00, 0,00, 0,00, -0,01, -0,01, 0,97
150, 0,00, -3522,37, 58255,21, 0,00, 0,00, 0,00, 0,00, 0,00, -0,01, -0,01, 0,97
151, 0,00, -24640,25, 65138,12, 0,00, 0,00, 0,00, 0,00, 0,00, -0,01, -0,01, 0,97
152, 0,00, 8772,79, 50493,62, 0,00, 0,00, 0,00, 0,00, 0,00, -0,00, -0,01, 0,97
153, 0,00, 49809,65, 34778,15, 0,00, 0,00, 0,00, 0,00, 0,00, -0,00, -0,01, 0,97
154, 0,00, 40919,47, 39941,36, 0,00, 0,00, 0,00, 0,00, 0,00, -0,00, -0,01, 0,97
155, 0,00, -3321,60, 58164,13, 0,00, 0,00, 0,00, 0,00, 0,00, -0,00, -0,01, 0,97
156, 0,00, -24749,77, 65189,55, 0,00, 0,00, 0,00, 0,00, 0,00, -0,00, -0,01, 0,97
157, 0,00, 8528,51, 50591,61, 0,00, 0,00, 0,00, 0,00, 0,00, -0,01, -0,01, 0,98
158, 0,00, 49712,31, 34811,01, 0,00, 0,00, 0,00, 0,00, 0,00, -0,01, -0,01, 0,98
159, 0,00, 41004,34, 39939,46, 0,00, 0,00, 0,00, 0,00, 0,00, -0,01, -0,01, 0,98
160, 0,00, -3248,76, 58182,55, 0,00, 0,00, 0,00, 0,00, 0,00, -0,01, -0,01, 0,98
161, 0,00, -24852,70, 65271,14, 0,00, 0,00, 0,00, 0,00, 0,00, -0,01, -0,01, 0,98
162, 0,00, 8297,44, 50690,22, 0,00, 0,00, 0,00, 0,00, 0,00, -0,01, -0,01, 0,98
163, 0,00, 49544,65, 34864,16, 0,00, 0,00, 0,00, 0,00, 0,00, -0,01, -0,01, 0,98
164, 0,00, 41120,41, 39887,09, 0,00, 0,00, 0,00, 0,00, 0,00, -0,01, -0,01, 0,98
165, 0,00, -3016,50, 58102,33, 0,00, 0,00, 0,00, 0,00, 0,00, -0,01, -0,01, 0,98
166, 0,00, -24927,94, 65315,73, 0,00, 0,00, 0,00, 0,00, 0,00, -0,01, -0,01, 0,98
167, 0,00, 8003,38, 50829,21, 0,00, 0,00, 0,00, 0,00, 0,00, -0,01, -0,01, 0,97
168, 0,00, 49374,64, 34947,38, 0,00, 0,00, 0,00, 0,00, 0,00, -0,01, -0,01, 0,97
169, 0,00, 41269,10, 39829,42, 0,00, 0,00, 0,00, 0,00, 0,00, -0,01, -0,01, 0,97
170, 0,00, -2795,02, 58009,35, 0,00, 0,00, 0,00, 0,00, 0,00, -0,01, -0,01, 0,97
171, 0,00, -25022,35, 65361,66, 0,00, 0,00, 0,00, 0,00, 0,00, -0,01, -0,01, 0,97
172, 0,00, 7701,14, 50961,55, 0,00, 0,00, 0,00, 0,00, 0,00, -0,01, -0,00, 0,97
173, 0,00, 49224,55, 35006,05, 0,00, 0,00, 0,00, 0,00, 0,00, -0,01, -0,00, 0,97
174, 0,00, 41483,23, 39748,42, 0,00, 0,00, 0,00, 0,00, 0,00, -0,01, -0,00, 0,97
175, 0,00, -2518,46, 57912,23, 0,00, 0,00, 0,00, 0,00, 0,00, -0,01, -0,00, 0,97
176, 0,00, -25048,24, 65372,95, 0,00, 0,00, 0,00, 0,00, 0,00, -0,01, -0,00, 0,97
177, 0,00, 7442,37, 51046,24, 0,00, 0,00, 0,00, 0,00, 0,00, -0,01, -0,00, 0,97
178, 0,00, 49062,43, 35050,75, 0,00, 0,00, 0,00, 0,00, 0,00, -0,01, -0,01, 0,97
179, 0,00, 41671,61, 39655,86, 0,00, 0,00, 0,00, 0,00, 0,00, -0,01, -0,01, 0,97
180, 0,00, -2289,56, 57813,25, 0,00, 0,00, 0,00, 0,00, 0,00, -0,01, -0,01, 0,97
181, 0,00, -25177,05, 65434,86, 0,00, 0,00, 0,00, 0,00, 0,00, -0,01, -0,01, 0,97
182, 0,00, 7165,28, 51176,13, 0,00, 0,00, 0,00, 0,00, 0,00, -0,01, -0,01, 0,97
183, 0,00, 49033,20, 35068,54, 0,00, 0,00, 0,00, 0,00, 0,00, -0,01, -0,01, 0,97
184, 0,00, 41899,75, 39567,35, 0,00, 0,00, 0,00, 0,00, 0,00, -0,01, -0,01, 0,97
185, 0,00, -1990,09, 57691,10, 0,00, 0,00, 0,00, 0,00, 0,00, -0,01, -0,01, 0,97
186, 0,00, -25223,90, 65475,12, 0,00, 0,00, 0,00, 0,00, 0,00, -0,01, -0,01, 0,97
187, 0,00, 6814,78, 51352,37, 0,00, 0,00, 0,00, 0,00, 0,00, -0,01, -0,01, 0,97
188, 0,00, 48860,53, 35164,79, 0,00, 0,00, 0,00, 0,00, 0,00, -0,01, -0,01, 0,97
189, 0,00, 42130,22, 39474,77, 0,00, 0,00, 0,00, 0,00, 0,00, -0,01, -0,01, 0,97
190, 0,00, -1700,07, 57585,67, 0,00, 0,00, 0,00, 0,00, 0,00, -0,01, -0,01, 0,97
191, 0,00, -25233,49, 65493,85, 0,00, 0,00, 0,00, 0,00, 0,00, -0,01, -0,01, 0,97
192, 0,00, 6520,41, 51478,95, 0,00, 0,00, 0,00, 0,00, 0,00, -0,01, -0,01, 0,97
193, 0,00, 48553,26, 35270,34, 0,00, 0,00, 0,00, 0,00, 0,00, -0,00, -0,01, 0,98
194, 0,00, 42348,22, 39398,95, 0,00, 0,00, 0,00, 0,00, 0,00, -0,00, -0,01, 0,98
195, 0,00, -1340,84, 57461,19, 0,00, 0,00, 0,00, 0,00, 0,00, -0,00, -0,01, 0,98
196, 0,00, -25259,88, 65529,19, 0,00, 0,00, 0,00, 0,00, 0,00, -0,00, -0,01, 0,98
197, 0,00, 6260,34, 51583,33, 0,00, 0,00, 0,00, 0,00, 0,00, -0,00, -0,01, 0,98
198, 0,00, 48466,00, 35278,56, 0,00, 0,00, 0,00, 0,00, 0,00, 0,00, -0,01, 0,97
199, 0,00, 42549,67, 39284,48, 0,00, 0,00, 0,00, 0,00, 0,00, 0,00, -0,01, 0,97
200, 0,00, -1127,38, 57347,04, 0,00, 0,00, 0,00, 0,00, 0,00, 0,00, -0,01, 0,97
201, 0,00, -25338,54, 65549,04, 0,00, 0,00, 0,00, 0,00, 0,00, 0,00, -0,01, 0,97
202, 0,00, 5964,76, 51695,29, 0,00, 0,00, 0,00, 0,00, 0,00, 0,00, -0,01, 0,97
203, 0,00, 48309,58, 35313,36, 0,00, 0,00, 0,00, 0,00, 0,00, -0,01, -0,00, 0,97
204, 0,00, 42744,78, 39187,82, 0,00, 0,00, 0,00, 0,00, 0,00, -0,01, -0,00, 0,97
205, 0,00, -869,75, 57237,96, 0,00, 0,00, 0,00, 0,00, 0,00, -0,01, -0,00, 0,97
206, 0,00, -25408,28, 65575,75, 0,00, 0,00, 0,00, 0,00, 0,00, -0,01, -0,00, 0,97
207, 0,00, 5703,14, 51808,21, 0,00, 0,00, 0,00, 0,00, 0,00, -0,01, -0,00, 0,97
208, 0,00, 48214,19, 35354,18, 0,00, 0,00, 0,00, 0,00, 0,00, -0,01, -0,00, 0,97
209, 0,00, 42950,75, 39121,45, 0,00, 0,00, 0,00, 0,00, 0,00, -0,00, -0,01, 0,97
210, 0,00, -552,62, 57139,98, 0,00, 0,00, 0,00, 0,00, 0,00, -0,00, -0,01, 0,97
211, 0,00, -25392,50, 65595,39, 0,00, 0,00, 0,00, 0,00, 0,00, -0,00, -0,01, 0,97
212, 0,00, 5447,63, 51916,69, 0,00, 0,00, 0,00, 0,00, 0,00, -0,00, -0,01, 0,97
213, 0,00, 47935,97, 35443,32, 0,00, 0,00, 0,00, 0,00, 0,00, -0,00, -0,01, 0,97
214, 0,00, 43126,97, 39047,27, 0,00, 0,00, 0,00, 0,00, 0,00, -0,01, -0,01, 0,98
215, 0,00, -414,67, 57104,93, 0,00, 0,00, 0,00, 0,00, 0,00, -0,01, -0,01, 0,98
216, 0,00, -25512,53, 65673,29, 0,00, 0,00, 0,00, 0,00, 0,00, -0,01, -0,01, 0,98
217, 0,00, 5200,36, 52035,48, 0,00, 0,00, 0,00, 0,00, 0,00, -0,01, -0,01, 0,98
218, 0,00, 47910,40, 35469,87, 0,00, 0,00, 0,00, 0,00, 0,00, -0,01, -0,01, 0,98
219, 0,00, 43305,25, 38978,00, 0,00, 0,00, 0,00, 0,00, 0,00, -0,01, -0,01, 0,98
220, 0,00, -65,20, 56962,61, 0,00, 0,00, 0,00, 0,00, 0,00, -0,01, -0,01, 0,98
221, 0,00, -25471,00, 65664,69, 0,00, 0,00, 0,00, 0,00, 0,00, -0,01, -0,01, 0,98
222, 0,00, 4858,00, 52162,44, 0,00, 0,00, 0,00, 0,00, 0,00, -0,01, -0,01, 0,98
223, 0,00, 47504,94, 35586,03, 0,00, 0,00, 0,00, 0,00, 0,00, -0,01, -0,01, 0,98
224, 0,00, 43507,31, 38878,11, 0,00, 0,00, 0,00, 0,00, 0,00, -0,01, -0,01, 0,98
225, 0,00, 275,53, 56819,70, 0,00, 0,00, 0,00, 0,00, 0,00, -0,01, -0,01, 0,98
226, 0,00, -25463,02, 65672,42, 0,00, 0,00, 0,00, 0,00, 0,00, -0,01, -0,01, 0,98
227, 0,00, 4646,01, 52258,00, 0,00, 0,00, 0,00, 0,00, 0,00, -0,01, -0,01, 0,98
228, 0,00, 47486,93, 35599,96, 0,00, 0,00, 0,00, 0,00, 0,00, -0,01, -0,01, 0,98
229, 0,00, 43701,08, 38780,52, 0,00, 0,00, 0,00, 0,00, 0,00, -0,01, -0,02, 0,97
230, 0,00, 521,53, 56716,54, 0,00, 0,00, 0,00, 0,00, 0,00, -0,01, -0,02, 0,97
231, 0,00, -25524,95, 65684,27, 0,00, 0,00, 0,00, 0,00, 0,00, -0,01, -0,02, 0,97
232, 0,00, 4346,61, 52366,54, 0,00, 0,00, 0,00, 0,00, 0,00, -0,01, -0,02, 0,97
233, 0,00, 47281,34, 35666,21, 0,00, 0,00, 0,00, 0,00, 0,00, -0,01, -0,02, 0,97
234, 0,00, 43867,55, 38718,00, 0,00, 0,00, 0,00, 0,00, 0,00, -0,01, -0,01, 0,97
235, 0,00, 759,69, 56637,62, 0,00, 0,00, 0,00, 0,00, 0,00, -0,01, -0,01, 0,97
236, 0,00, -25613,49, 65752,57, 0,00, 0,00, 0,00, 0,00, 0,00, -0,01, -0,01, 0,97
237, 0,00, 4022,31, 52524,16, 0,00, 0,00, 0,00, 0,00, 0,00, -0,01, -0,01, 0,97
238, 0,00, 47064,73, 35755,04, 0,00, 0,00, 0,00, 0,00, 0,00, -0,01, -0,01, 0,97
239, 0,00, 44071,25, 38648,04, 0,00, 0,00, 0,00, 0,00, 0,00, -0,01, -0,01, 0,97
240, 0,00, 1077,22, 56521,05, 0,00, 0,00, 0,00, 0,00, 0,00, -0,01, -0,01, 0,98
241, 0,00, -25589,15, 65757,18, 0,00, 0,00, 0,00, 0,00, 0,00, -0,01, -0,01, 0,98
242, 0,00, 3785,29, 52627,96, 0,00, 0,00, 0,00, 0,00, 0,00, -0,01, -0,01, 0,98
243, 0,00, 46920,04, 35803,49, 0,00, 0,00, 0,00, 0,00, 0,00, -0,01, -0,01, 0,98
244, 0,00, 44270,04, 38533,13, 0,00, 0,00, 0,00, 0,00, 0,00, -0,01, -0,01, 0,98
245, 0,00, 1360,17, 56393,96, 0,00, 0,00, 0,00, 0,00, 0,00, -0,01, -0,01, 0,98
246, 0,00, -25593,46, 65771,75, 0,00, 0,00, 0,00, 0,00, 0,00, -0,01, -0,01, 0,98
247, 0,00, 3537,52, 52718,80, 0,00, 0,00, 0,00, 0,00, 0,00, -0,01, -0,01, 0,98
248, 0,00, 46738,59, 35834,34, 0,00, 0,00, 0,00, 0,00, 0,00, -0,01, -0,01, 0,98
249, 0,00, 44434,73, 38449,40, 0,00, 0,00, 0,00, 0,00, 0,00, -0,01, -0,01, 0,98
250, 0,00, 1608,68, 56284,30, 0,00, 0,00, 0,00, 0,00, 0,00, -0,01, -0,01, 0,98
251, 0,00, -25613,62, 65785,65, 0,00, 0,00, 0,00, 0,00, 0,00, -0,01, -0,01, 0,98
252, 0,00, 3241,41, 52839,23, 0,00, 0,00, 0,00, 0,00, 0,00, -0,01, -0,01, 0,98
253, 0,00, 46487,43, 35909,37, 0,00, 0,00, 0,00, 0,00, 0,00, -0,01, -0,01, 0,98
254, 0,00, 44644,90, 38361,02, 0,00, 0,00, 0,00, 0,00, 0,00, -0,01, -0,01, 0,98
255, 0,00, 1949,88, 56163,54, 0,00, 0,00, 0,00, 0,00, 0,00, 0,00, -0,01, 0,98
0, 0,00, -25605,02, 65783,46, 0,00, 0,00, 0,00, 0,00, 0,00, 0,00, -0,01, 0,98
1, 0,00, 2993,97, 52943,52, 0,00, 0,00, 0,00, 0,00, 0,00, 0,00, -0,01, 0,98
2, 0,00, 46347,55, 35977,55, 0,00, 0,00, 0,00, 0,00, 0,00, 0,00, -0,01, 0,98
3, 0,00, 44813,26, 38292,29, 0,00, 0,00, 0,00, 0,00, 0,00, 0,00, -0,01, 0,98
4, 0,00, 2221,54, 56051,40, 0,00, 0,00, 0,00, 0,00, 0,00, -0,01, -0,01, 0,98
5, 0,00, -25582,89, 65796,58, 0,00, 0,00, 0,00, 0,00, 0,00, -0,01, -0,01, 0,98
6, 0,00, 2735,90, 53061,25, 0,00, 0,00, 0,00, 0,00, 0,00, -0,01, -0,01, 0,98
7, 0,00, 46064,51, 36070,35, 0,00, 0,00, 0,00, 0,00, 0,00, -0,01, -0,01, 0,98
8, 0,00, 44977,54, 38215,02, 0,00, 0,00, 0,00, 0,00, 0,00, -0,01, -0,01, 0,98
9, 0,00, 2480,28, 55951,53, 0,00, 0,00, 0,00, 0,00, 0,00, -0,01, -0,01, 0,97
10, 0,00, -25678,71, 65837,02, 0,00, 0,00, 0,00, 0,00, 0,00, -0,01, -0,01, 0,97
11, 0,00, 2438,60, 53166,93, 0,00, 0,00, 0,00, 0,00, 0,00, -0,01, -0,01, 0,97
12, 0,00, 46057,40, 36052,65, 0,00, 0,00, 0,00, 0,00, 0,00, -0,01, -0,01, 0,97
13, 0,00, 45191,58, 38121,37, 0,00, 0,00, 0,00, 0,00, 0,00, -0,01, -0,01, 0,97
14, 0,00, 2668,42, 55882,13, 0,00, 0,00, 0,00, 0,00, 0,00, -0,01, -0,01, 0,97
15, 0,00, -25687,67, 65858,23, 0,00, 0,00, 0,00, 0,00, 0,00, -0,01, -0,01, 0,98
16, 0,00, 2247,00, 53243,89, 0,00, 0,00, 0,00, 0,00, 0,00, -0,01, -0,01, 0,98
17, 0,00, 45905,79, 36090,87, 0,00, 0,00, 0,00, 0,00, 0,00, -0,01, -0,01, 0,98
18, 0,00, 45347,04, 38046,38, 0,00, 0,00, 0,00, 0,00, 0,00, -0,01, -0,01, 0,98
19, 0,00, 2968,78, 55763,38, 0,00, 0,00, 0,00, 0,00, 0,00, -0,01, -0,01, 0,98
20, 0,00, -25691,83, 65872,89, 0,00, 0,00, 0,00, 0,00, 0,00, -0,01, -0,01, 0,97
21, 0,00, 1928,87, 53363,65, 0,00, 0,00, 0,00, 0,00, 0,00, -0,01, -0,01, 0,97
22, 0,00, 45647,45, 36175,76, 0,00, 0,00, 0,00, 0,00, 0,00, -0,01, -0,01, 0,97
23, 0,00, 45495,01, 37982,23, 0,00, 0,00, 0,00, 0,00, 0,00, -0,01, -0,01, 0,97
24, 0,00, 3237,29, 55660,07, 0,00, 0,00, 0,00, 0,00, 0,00, -0,01, -0,01, 0,97
25, 0,00, -25692,61, 65892,11, 0,00, 0,00, 0,00, 0,00, 0,00, -0,01, -0,01, 0,97
26, 0,00, 1672,65, 53483,05, 0,00, 0,00, 0,00, 0,00, 0,00, -0,01, -0,01, 0,97
27, 0,00, 45426,93, 36253,88, 0,00, 0,00, 0,00, 0,00, 0,00, -0,01, -0,01, 0,97
28, 0,00, 45657,37, 37905,45, 0,00, 0,00, 0,00, 0,00, 0,00, -0,01, -0,01, 0,97
29, 0,00, 3502,54, 55559,93, 0,00, 0,00, 0,00, 0,00, 0,00, -0,01, -0,01, 0,97
30, 0,00, -25704,71, 65893,50, 0,00, 0,00, 0,00, 0,00, 0,00, -0,01, -0,01, 0,97
31, 0,00, 1379,08, 53604,62, 0,00, 0,00, 0,00, 0,00, 0,00, -0,01, -0,01, 0,97
32, 0,00, 45158,41, 36345,12, 0,00, 0,00, 0,00, 0,00, 0,00, -0,01, -0,01, 0,97
33, 0,00, 45823,78, 37822,86, 0,00, 0,00, 0,00, 0,00, 0,00, -0,01, -0,01, 0,97
34, 0,00, 3710,41, 55452,75, 0,00, 0,00, 0,00, 0,00, 0,00, -0,01, -0,01, 0,97
35, 0,00, -25826,17, 65933,64, 0,00, 0,00, 0,00, 0,00, 0,00, -0,01, -0,01, 0,97
36, 0,00, 1095,86, 53708,51, 0,00, 0,00, 0,00, 0,00, 0,00, -0,01, -0,01, 0,97
37, 0,00, 45288,52, 36303,70, 0,00, 0,00, 0,00, 0,00, 0,00, -0,01, -0,01, 0,97
38, 0,00, 46093,30, 37702,09, 0,00, 0,00, 0,00, 0,00, 0,00, -0,01, -0,01, 0,97
39, 0,00, 4045,17, 55292,13, 0,00, 0,00, 0,00, 0,00, 0,00, -0,01, -0,01, 0,97
40, 0,00, -25827,08, 65927,49, 0,00, 0,00, 0,00, 0,00, 0,00, -0,01, -0,01, 0,97
41, 0,00, 731,95, 53854,43, 0,00, 0,00, 0,00, 0,00, 0,00, -0,01, -0,01, 0,97
42, 0,00, 44929,71, 36431,75, 0,00, 0,00, 0,00, 0,00, 0,00, -0,01, -0,01, 0,97
43, 0,00, 46244,75, 37630,25, 0,00, 0,00, 0,00, 0,00, 0,00, -0,01, -0,01, 0,97
44, 0,00, 4297,15, 55196,56, 0,00, 0,00, 0,00, 0,00, 0,00, -0,01, -0,01, 0,97
45, 0,00, -25836,25, 65956,40, 0,00, 0,00, 0,00, 0,00, 0,00, -0,01, -0,01, 0,97
46, 0,00, 450,01, 53980,38, 0,00, 0,00, 0,00, 0,00, 0,00, -0,01, -0,01, 0,97
47, 0,00, 44619,54, 36525,07, 0,00, 0,00, 0,00, 0,00, 0,00, -0,01, -0,01, 0,97
48, 0,00, 46408,21, 37541,12, 0,00, 0,00, 0,00, 0,00, 0,00, -0,01, -0,01, 0,97
49, 0,00, 4653,66, 55046,85, 0,00, 0,00, 0,00, 0,00, 0,00, -0,01, -0,01, 0,97
50, 0,00, -25840,45, 65964,22, 0,00, 0,00, 0,00, 0,00, 0,00, -0,01, -0,01, 0,97
51, 0,00, 105,12, 54113,50, 0,00, 0,00, 0,00, 0,00, 0,00, -0,00, -0,01, 0,97
52, 0,00, 44375,61, 36603,17, 0,00, 0,00, 0,00, 0,00, 0,00, -0,00, -0,01, 0,97
53, 0,00, 46553,30, 37472,70, 0,00, 0,00, 0,00, 0,00, 0,00, -0,00, -0,01, 0,97
54, 0,00, 4936,65, 54936,99, 0,00, 0,00, 0,00, 0,00, 0,00, -0,00, -0,01, 0,97
55, 0,00, -25779,23, 65943,84, 0,00, 0,00, 0,00, 0,00, 0,00, -0,00, -0,01, 0,97
56, 0,00, -118,93, 54218,20, 0,00, 0,00, 0,00, 0,00, 0,00, 0,00, -0,01, 0,97
57, 0,00, 44126,48, 36696,91, 0,00, 0,00, 0,00, 0,00, 0,00, 0,00, -0,01, 0,97
58, 0,00, 46710,43, 37404,35, 0,00, 0,00, 0,00, 0,00, 0,00, 0,00, -0,01, 0,97
59, 0,00, 5254,07, 54820,18, 0,00, 0,00, 0,00, 0,00, 0,00, 0,00, -0,01, 0,97
60, 0,00, -25747,82, 65955,37, 0,00, 0,00, 0,00, 0,00, 0,00, 0,00, -0,01, 0,97
61, 0,00, -412,79, 54351,91, 0,00, 0,00, 0,00, 0,00, 0,00, -0,01, -0,01, 0,97
62, 0,00, 43962,71, 36763,81, 0,00, 0,00, 0,00, 0,00, 0,00, -0,01, -0,01, 0,97
63, 0,00, 46915,95, 37306,34, 0,00, 0,00, 0,00, 0,00, 0,00, -0,01, -0,01, 0,97
64, 0,00, 5587,02, 54681,84, 0,00, 0,00, 0,00, 0,00, 0,00, -0,01, -0,01, 0,97
65, 0,00, -25688,61, 65944,59, 0,00, 0,00, 0,00, 0,00, 0,00, -0,01, -0,01, 0,97
66, 0,00, -684,39, 54461,32, 0,00, 0,00, 0,00, 0,00, 0,00, -0,01, -0,01, 0,97
67, 0,00, 43559,35, 36898,75, 0,00, 0,00, 0,00, 0,00, 0,00, -0,01, -0,01, 0,97
68, 0,00, 47051,02, 37242,16, 0,00, 0,00, 0,00, 0,00, 0,00, -0,01, -0,01, 0,97
69, 0,00, 5862,06, 54574,91, 0,00, 0,00, 0,00, 0,00, 0,00, -0,01, -0,01, 0,97
70, 0,00, -25680,50, 65957,38, 0,00, 0,00, 0,00, 0,00, 0,00, -0,01, -0,01, 0,97
71, 0,00, -958,13, 54578,91, 0,00, 0,00, 0,00, 0,00, 0,00, -0,01, -0,01, 0,97
72, 0,00, 43522,58, 36923,32, 0,00, 0,00, 0,00, 0,00, 0,00, -0,01, -0,01, 0,97
73, 0,00, 47266,88, 37163,55, 0,00, 0,00, 0,00, 0,00, 0,00, -0,01, -0,01, 0,97
74, 0,00, 6185,35, 54447,64, 0,00, 0,00, 0,00, 0,00, 0,00, -0,01, -0,01, 0,97
75, 0,00, -25633,38, 65954,09, 0,00, 0,00, 0,00, 0,00, 0,00, -0,01, -0,01, 0,97
76, 0,00, -1189,58, 54685,51, 0,00, 0,00, 0,00, 0,00, 0,00, -0,01, -0,01, 0,97
77, 0,00, 43318,95, 36995,15, 0,00, 0,00, 0,00, 0,00, 0,00, -0,01, -0,02, 0,97
78, 0,00, 47433,51, 37090,75, 0,00, 0,00, 0,00, 0,00, 0,00, -0,01, -0,02, 0,97
79, 0,00, 6500,54, 54333,82, 0,00, 0,00, 0,00, 0,00, 0,00, -0,01, -0,02, 0,97
80, 0,00, -25559,02, 65958,25, 0,00, 0,00, 0,00, 0,00, 0,00, -0,01, -0,02, 0,97
81, 0,00, -1428,03, 54804,33, 0,00, 0,00, 0,00, 0,00, 0,00, -0,01, -0,02, 0,97
82, 0,00, 42990,85, 37110,22, 0,00, 0,00, 0,00, 0,00, 0,00, -0,01, -0,01, 0,97
83, 0,00, 47566,77, 37031,23, 0,00, 0,00, 0,00, 0,00, 0,00, -0,01, -0,01, 0,97
84, 0,00, 6783,73, 54215,34, 0,00, 0,00, 0,00, 0,00, 0,00, -0,01, -0,01, 0,97
85, 0,00, -25509,44, 65938,88, 0,00, 0,00, 0,00, 0,00, 0,00, -0,01, -0,01, 0,97
86, 0,00, -1674,28, 54913,50, 0,00, 0,00, 0,00, 0,00, 0,00, -0,01, -0,01, 0,97
87, 0,00, 42880,73, 37160,51, 0,00, 0,00, 0,00, 0,00, 0,00, -0,01, -0,01, 0,96
88, 0,00, 47695,58, 36959,79, 0,00, 0,00, 0,00, 0,00, 0,00, -0,01, -0,01, 0,96
89, 0,00, 7067,20, 54085,39, 0,00, 0,00, 0,00, 0,00, 0,00, -0,01, -0,01, 0,96
90, 0,00, -25473,41, 65917,98, 0,00, 0,00, 0,00, 0,00, 0,00, -0,01, -0,01, 0,96
91, 0,00, -1901,80, 54991,64, 0,00, 0,00, 0,00, 0,00, 0,00, -0,01, -0,01, 0,96
92, 0,00, 43038,75, 37043,48, 0,00, 0,00, 0,00, 0,00, 0,00, -0,01, -0,01, 0,97
93, 0,00, 48398,03, 36610,73, 0,00, 0,00, 0,00, 0,00, 0,00, -0,01, -0,01, 0,97
94, 0,00, 7511,77, 53901,63, 0,00, 0,00, 0,00, 0,00, 0,00, -0,01, -0,01, 0,97
95, 0,00, -25736,00, 66105,64, 0,00, 0,00, 0,00, 0,00, 0,00, -0,01, -0,01, 0,97
96, 0,00, -2502,99, 55280,69, 0,00, 0,00, 0,00, 0,00, 0,00, -0,01, -0,01, 0,97
97, 0,00, 42515,70, 37240,06, 0,00, 0,00, 0,00, 0,00, 0,00, -0,01, -0,01, 0,97
98, 0,00, 48433,90, 36597,16, 0,00, 0,00, 0,00, 0,00, 0,00, -0,01, -0,01, 0,97
99, 0,00, 7819,40, 53798,70, 0,00, 0,00, 0,00, 0,00, 0,00, -0,01, -0,01, 0,97
100, 0,00, -25667,47, 66099,47, 0,00, 0,00, 0,00, 0,00, 0,00, -0,01, -0,01, 0,97
101, 0,00, -2756,73, 55406,69, 0,00, 0,00, 0,00, 0,00, 0,00, -0,01, -0,01, 0,97
102, 0,00, 42176,45, 37364,02, 0,00, 0,00, 0,00, 0,00, 0,00, -0,01, -0,01, 0,98
103, 0,00, 48528,36, 36536,03, 0,00, 0,00, 0,00, 0,00, 0,00, -0,01, -0,01, 0,98
104, 0,00, 8043,23, 53683,10, 0,00, 0,00, 0,00, 0,00, 0,00, -0,01, -0,01, 0,98
105, 0,00, -25688,39, 66108,39, 0,00, 0,00, 0,00, 0,00, 0,00, -0,01, -0,01, 0,98
106, 0,00, -3063,66, 55513,64, 0,00, 0,00, 0,00, 0,00, 0,00, -0,01, -0,01, 0,98
107, 0,00, 41990,88, 37413,02, 0,00, 0,00, 0,00, 0,00, 0,00, -0,01, -0,01, 0,98
108, 0,00, 48677,58, 36458,49, 0,00, 0,00, 0,00, 0,00, 0,00, -0,00, -0,02, 0,98
109, 0,00, 8368,18, 53568,26, 0,00, 0,00, 0,00, 0,00, 0,00, -0,00, -0,02, 0,98
110, 0,00, -25304,57, 65937,13, 0,00, 0,00, 0,00, 0,00, 0,00, -0,00, -0,02, 0,98
111, 0,00, -3080,16, 55512,30, 0,00, 0,00, 0,00, 0,00, 0,00, -0,00, -0,02, 0,98
112, 0,00, 41444,47, 37673,60, 0,00, 0,00, 0,00, 0,00, 0,00, -0,00, -0,02, 0,98
113, 0,00, 48335,49, 36653,64, 0,00, 0,00, 0,00, 0,00, 0,00, -0,00, -0,01, 0,97
114, 0,00, 8531,66, 53483,45, 0,00, 0,00, 0,00, 0,00, 0,00, -0,00, -0,01, 0,97
115, 0,00, -25235,72, 65871,57, 0,00, 0,00, 0,00, 0,00, 0,00, -0,00, -0,01, 0,97
116, 0,00, -3308,82, 55580,32, 0,00, 0,00, 0,00, 0,00, 0,00, -0,00, -0,01, 0,97
117, 0,00, 41392,73, 37689,64, 0,00, 0,00, 0,00, 0,00, 0,00, -0,00, -0,01, 0,97
118, 0,00, 48498,41, 36582,12, 0,00, 0,00, 0,00, 0,00, 0,00, -0,00, -0,00, 0,97
119, 0,00, 8788,73, 53373,13, 0,00, 0,00, 0,00, 0,00, 0,00, -0,00, -0,00, 0,97
120, 0,00, -25194,42, 65866,72, 0,00, 0,00, 0,00, 0,00, 0,00, -0,00, -0,00, 0,97
121, 0,00, -3566,82, 55690,29, 0,00, 0,00, 0,00, 0,00, 0,00, -0,00, -0,00, 0,97
122, 0,00, 41103,80, 37775,65, 0,00, 0,00, 0,00, 0,00, 0,00, -0,00, -0,00, 0,97
123, 0,00, 48629,82, 36498,25, 0,00, 0,00, 0,00, 0,00, 0,00, -0,01, -0,01, 0,98
124, 0,00, 9076,84, 53244,04, 0,00, 0,00, 0,00, 0,00, 0,00, -0,01, -0,01, 0,98
125, 0,00, -25096,02, 65824,86, 0,00, 0,00, 0,00, 0,00, 0,00, -0,01, -0,01, 0,98
126, 0,00, -3753,82, 55777,84, 0,00, 0,00, 0,00, 0,00, 0,00, -0,01, -0,01, 0,98
127, 0,00, 40908,59, 37865,55, 0,00, 0,00, 0,00, 0,00, 0,00, -0,01, -0,01, 0,98
128, 0,00, 48792,00, 36442,86, 0,00, 0,00, 0,00, 0,00, 0,00, -0,01, -0,01, 0,98
129, 0,00, 9409,55, 53135,17, 0,00, 0,00, 0,00, 0,00, 0,00, -0,01, -0,01, 0,98
130, 0,00, -25012,14, 65823,63, 0,00, 0,00, 0,00, 0,00, 0,00, -0,01, -0,01, 0,98
131, 0,00, -4008,87, 55878,91, 0,00, 0,00, 0,00, 0,00, 0,00, -0,01, -0,01, 0,98
132, 0,00, 40804,72, 37885,58, 0,00, 0,00, 0,00, 0,00, 0,00, -0,01, -0,01, 0,98
133, 0,00, 48969,50, 36369,75, 0,00, 0,00, 0,00, 0,00, 0,00, -0,01, -0,01, 0,98
134, 0,00, 9647,19, 53040,35, 0,00, 0,00, 0,00, 0,00, 0,00, -0,01, -0,01, 0,98
135, 0,00, -25010,28, 65835,12, 0,00, 0,00, 0,00, 0,00, 0,00, -0,01, -0,01, 0,98
136, 0,00, -4281,48, 55991,18, 0,00, 0,00, 0,00, 0,00, 0,00, -0,01, -0,01, 0,98
137, 0,00, 40499,30, 37981,34, 0,00, 0,00, 0,00, 0,00, 0,00, -0,01, -0,01, 0,98
138, 0,00, 49112,01, 36289,69, 0,00, 0,00, 0,00, 0,00, 0,00, -0,01, -0,01, 0,98
139, 0,00, 9958,98, 52910,40, 0,00, 0,00, 0,00, 0,00, 0,00, -0,01, -0,01, 0,98
140, 0,00, -24941,33, 65821,62, 0,00, 0,00, 0,00, 0,00, 0,00, -0,01, -0,01, 0,98
141, 0,00, -4559,67, 56108,15, 0,00, 0,00, 0,00, 0,00, 0,00, -0,01, -0,01, 0,98
142, 0,00, 40173,82, 38086,79, 0,00, 0,00, 0,00, 0,00, 0,00, -0,01, -0,01, 0,98
143, 0,00, 49229,47, 36209,20, 0,00, 0,00, 0,00, 0,00, 0,00, -0,01, -0,01, 0,98
144, 0,00, 10277,40, 52780,49, 0,00, 0,00, 0,00, 0,00, 0,00, -0,01, -0,01, 0,98
145, 0,00, -24838,62, 65796,29, 0,00, 0,00, 0,00, 0,00, 0,00, -0,01, -0,01, 0,98
146, 0,00, -4748,94, 56191,03, 0,00, 0,00, 0,00, 0,00, 0,00, -0,01, -0,01, 0,98
147, 0,00, 40104,71, 38113,99, 0,00, 0,00, 0,00, 0,00, 0,00, -0,01, -0,01, 0,98
148, 0,00, 49357,32, 36144,63, 0,00, 0,00, 0,00, 0,00, 0,00, -0,01, -0,01, 0,98
149, 0,00, 10533,75, 52662,74, 0,00, 0,00, 0,00, 0,00, 0,00, -0,01, -0,01, 0,97
150, 0,00, -24803,62, 65794,84, 0,00, 0,00, 0,00, 0,00, 0,00, -0,01, -0,01, 0,97
151, 0,00, -5064,95, 56325,30, 0,00, 0,00, 0,00, 0,00, 0,00, -0,01, -0,01, 0,97
152, 0,00, 39688,74, 38253,04, 0,00, 0,00, 0,00, 0,00, 0,00, -0,01, -0,01, 0,97
153, 0,00, 49466,91, 36085,06, 0,00, 0,00, 0,00, 0,00, 0,00, -0,01, -0,01, 0,97
154, 0,00, 10822,00, 52544,88, 0,00, 0,00, 0,00, 0,00, 0,00, -0,01, -0,01, 0,97
155, 0,00, -24751,29, 65791,48, 0,00, 0,00, 0,00, 0,00, 0,00, -0,01, -0,01, 0,97
156, 0,00, -5291,73, 56433,59, 0,00, 0,00, 0,00, 0,00, 0,00, -0,01, -0,01, 0,97
157, 0,00, 39624,41, 38298,33, 0,00, 0,00, 0,00, 0,00, 0,00, -0,01, -0,01, 0,97
158, 0,00, 49664,10, 36020,95, 0,00, 0,00, 0,00, 0,00, 0,00, -0,01, -0,01, 0,97
159, 0,00, 11111,45, 52433,64, 0,00, 0,00, 0,00, 0,00, 0,00, -0,01, -0,01, 0,98
160, 0,00, -24674,13, 65758,85, 0,00, 0,00, 0,00, 0,00, 0,00, -0,01, -0,01, 0,98
161, 0,00, -5545,67, 56520,81, 0,00, 0,00, 0,00, 0,00, 0,00, -0,01, -0,01, 0,98
162, 0,00, 39290,57, 38391,51, 0,00, 0,00, 0,00, 0,00, 0,00, -0,01, -0,01, 0,98
163, 0,00, 49765,84, 35950,88, 0,00, 0,00, 0,00, 0,00, 0,00, -0,01, -0,01, 0,98
164, 0,00, 11428,07, 52304,89, 0,00, 0,00, 0,00, 0,00, 0,00, -0,01, -0,02, 0,97
165, 0,00, -24571,83, 65742,80, 0,00, 0,00, 0,00, 0,00, 0,00, -0,01, -0,02, 0,97
166, 0,00, -5752,60, 56625,06, 0,00, 0,00, 0,00, 0,00, 0,00, -0,01, -0,02, 0,97
167, 0,00, 39045,37, 38473,74, 0,00, 0,00, 0,00, 0,00, 0,00, -0,01, -0,02, 0,97
168, 0,00, 49889,16, 35876,56, 0,00, 0,00, 0,00, 0,00, 0,00, -0,01, -0,02, 0,97
169, 0,00, 11704,92, 52178,20, 0,00, 0,00, 0,00, 0,00, 0,00, -0,01, -0,02, 0,97
170, 0,00, -24491,05, 65708,60, 0,00, 0,00, 0,00, 0,00, 0,00, -0,01, -0,01, 0,97
171, 0,00, -6002,47, 56725,84, 0,00, 0,00, 0,00, 0,00, 0,00, -0,01, -0,01, 0,97
172, 0,00, 38813,87, 38561,65, 0,00, 0,00, 0,00, 0,00, 0,00, -0,01, -0,01, 0,97
173, 0,00, 50015,78, 35825,46, 0,00, 0,00, 0,00, 0,00, 0,00, -0,01, -0,01, 0,97
174, 0,00, 12028,75, 52056,07, 0,00, 0,00, 0,00, 0,00, 0,00, -0,01, -0,01, 0,97
175, 0,00, -24362,86, 65687,23, 0,00, 0,00, 0,00, 0,00, 0,00, -0,01, -0,01, 0,97
176, 0,00, -6203,39, 56828,17, 0,00, 0,00, 0,00, 0,00, 0,00, -0,01, -0,01, 0,97
177, 0,00, 38485,81, 38665,32, 0,00, 0,00, 0,00, 0,00, 0,00, -0,01, -0,01, 0,97
178, 0,00, 50084,31, 35762,88, 0,00, 0,00, 0,00, 0,00, 0,00, -0,01, -0,01, 0,97
179, 0,00, 12287,74, 51934,93, 0,00, 0,00, 0,00, 0,00, 0,00, -0,01, -0,01, 0,97
180, 0,00, -24318,79, 65678,95, 0,00, 0,00, 0,00, 0,00, 0,00, -0,01, -0,01, 0,97
181, 0,00, -6509,36, 56946,27, 0,00, 0,00, 0,00, 0,00, 0,00, -0,01, -0,01, 0,97
182, 0,00, 38339,68, 38738,63, 0,00, 0,00, 0,00, 0,00, 0,00, -0,01, -0,01, 0,97
183, 0,00, 50249,92, 35703,31, 0,00, 0,00, 0,00, 0,00, 0,00, -0,01, -0,01, 0,97
184, 0,00, 12541,43, 51835,46, 0,00, 0,00, 0,00, 0,00, 0,00, -0,01, -0,01, 0,97
185, 0,00, -24246,81, 65659,92, 0,00, 0,00, 0,00, 0,00, 0,00, -0,01, -0,00, 0,97
186, 0,00, -6736,01, 57039,06, 0,00, 0,00, 0,00, 0,00, 0,00, -0,01, -0,00, 0,97
187, 0,00, 38077,16, 38812,86, 0,00, 0,00, 0,00, 0,00, 0,00, -0,01, -0,00, 0,97
188, 0,00, 50375,38, 35617,01, 0,00, 0,00, 0,00, 0,00, 0,00, -0,01, -0,00, 0,97
189, 0,00, 12854,49, 51700,90, 0,00, 0,00, 0,00, 0,00, 0,00, -0,01, -0,00, 0,97
190, 0,00, -24175,56, 65644,68, 0,00, 0,00, 0,00, 0,00, 0,00, -0,01, -0,01, 0,98
191, 0,00, -6962,50, 57143,11, 0,00, 0,00, 0,00, 0,00, 0,00, -0,01, -0,01, 0,98
192, 0,00, 37828,27, 38906,70, 0,00, 0,00, 0,00, 0,00, 0,00, -0,01, -0,01, 0,98
193, 0,00, 50507,99, 35562,12, 0,00, 0,00, 0,00, 0,00, 0,00, -0,01, -0,01, 0,98
194, 0,00, 13151,05, 51591,65, 0,00, 0,00, 0,00, 0,00, 0,00, -0,01, -0,01, 0,98
195, 0,00, -24051,13, 65624,18, 0,00, 0,00, 0,00, 0,00, 0,00, -0,01, -0,01, 0,98
196, 0,00, -7206,60, 57260,00, 0,00, 0,00, 0,00, 0,00, 0,00, -0,01, -0,01, 0,98
197, 0,00, 37515,46, 39012,46, 0,00, 0,00, 0,00, 0,00, 0,00, -0,01, -0,01, 0,98
198, 0,00, 50604,19, 35510,39, 0,00, 0,00, 0,00, 0,00, 0,00, -0,01, -0,01, 0,98
199, 0,00, 13456,89, 51486,41, 0,00, 0,00, 0,00, 0,00, 0,00, -0,01, -0,01, 0,98
200, 0,00, -23972,80, 65624,81, 0,00, 0,00, 0,00, 0,00, 0,00, -0,01, -0,01, 0,98
201, 0,00, -7432,94, 57374,49, 0,00, 0,00, 0,00, 0,00, 0,00, -0,01, -0,01, 0,98
202, 0,00, 37420,42, 39069,33, 0,00, 0,00, 0,00, 0,00, 0,00, -0,01, -0,01, 0,98
203, 0,00, 50802,81, 35435,88, 0,00, 0,00, 0,00, 0,00, 0,00, -0,01, -0,01, 0,98
204, 0,00, 13729,09, 51367,01, 0,00, 0,00, 0,00, 0,00, 0,00, -0,01, -0,01, 0,98
205, 0,00, -23952,38, 65597,52, 0,00, 0,00, 0,00, 0,00, 0,00, -0,01, -0,01, 0,98
206, 0,00, -7685,51, 57457,17, 0,00, 0,00, 0,00, 0,00, 0,00, -0,01, -0,01, 0,99
207, 0,00, 37182,91, 39128,74, 0,00, 0,00, 0,00, 0,00, 0,00, -0,01, -0,01, 0,99
208, 0,00, 50867,29, 35374,79, 0,00, 0,00, 0,00, 0,00, 0,00, -0,01, -0,01, 0,99
209, 0,00, 13977,46, 51267,95, 0,00, 0,00, 0,00, 0,00, 0,00, -0,01, -0,01, 0,99
210, 0,00, -23834,89, 65605,20, 0,00, 0,00, 0,00, 0,00, 0,00, -0,01, -0,01, 0,99
211, 0,00, -7944,88, 57586,34, 0,00, 0,00, 0,00, 0,00, 0,00, -0,01, -0,01, 0,98
212, 0,00, 36885,77, 39221,86, 0,00, 0,00, 0,00, 0,00, 0,00, -0,01, -0,01, 0,98
213, 0,00, 50957,55, 35301,14, 0,00, 0,00, 0,00, 0,00, 0,00, -0,01, -0,01, 0,98
214, 0,00, 14230,19, 51140,14, 0,00, 0,00, 0,00, 0,00, 0,00, -0,01, -0,01, 0,98
215, 0,00, -23782,88, 65585,88, 0,00, 0,00, 0,00, 0,00, 0,00, -0,01, -0,01, 0,98
216, 0,00, -8231,57, 57695,19, 0,00, 0,00, 0,00, 0,00, 0,00, -0,01, -0,01, 0,97
217, 0,00, 36571,63, 39334,22, 0,00, 0,00, 0,00, 0,00, 0,00, -0,01, -0,01, 0,97
218, 0,00, 51060,46, 35266,67, 0,00, 0,00, 0,00, 0,00, 0,00, -0,01, -0,01, 0,97
219, 0,00, 14577,87, 51033,66, 0,00, 0,00, 0,00, 0,00, 0,00, -0,01, -0,01, 0,97
220, 0,00, -23627,49, 65583,95, 0,00, 0,00, 0,00, 0,00, 0,00, -0,01, -0,01, 0,97
221, 0,00, -8400,39, 57809,41, 0,00, 0,00, 0,00, 0,00, 0,00, -0,01, -0,01, 0,97
222, 0,00, 36479,10, 39395,64, 0,00, 0,00, 0,00, 0,00, 0,00, -0,01, -0,01, 0,97
223, 0,00, 51233,08, 35215,86, 0,00, 0,00, 0,00, 0,00, 0,00, -0,01, -0,01, 0,97
224, 0,00, 14865,41, 50942,62, 0,00, 0,00, 0,00, 0,00, 0,00, -0,01, -0,01, 0,97
225, 0,00, -23518,33, 65570,38, 0,00, 0,00, 0,00, 0,00, 0,00, -0,01, -0,01, 0,97
226, 0,00, -8662,37, 57923,71, 0,00, 0,00, 0,00, 0,00, 0,00, -0,00, -0,01, 0,98
227, 0,00, 36139,84, 39516,63, 0,00, 0,00, 0,00, 0,00, 0,00, -0,00, -0,01, 0,98
228, 0,00, 51332,50, 35162,49, 0,00, 0,00, 0,00, 0,00, 0,00, -0,00, -0,01, 0,98
229, 0,00, 15180,59, 50823,80, 0,00, 0,00, 0,00, 0,00, 0,00, -0,00, -0,01, 0,98
230, 0,00, -23393,13, 65544,70, 0,00, 0,00, 0,00, 0,00, 0,00, -0,00, -0,01, 0,98
231, 0,00, -8862,85, 58016,39, 0,00, 0,00, 0,00, 0,00, 0,00, 0,00, -0,01, 0,98
232, 0,00, 35911,21, 39572,45, 0,00, 0,00, 0,00, 0,00, 0,00, 0,00, -0,01, 0,98
233, 0,00, 51383,44, 35090,23, 0,00, 0,00, 0,00, 0,00, 0,00, 0,00, -0,01, 0,98
234, 0,00, 15415,57, 50702,38, 0,00, 0,00, 0,00, 0,00, 0,00, 0,00, -0,01, 0,98
235, 0,00, -23294,03, 65505,61, 0,00, 0,00, 0,00, 0,00, 0,00, 0,00, -0,01, 0,98
236, 0,00, -9077,56, 58095,18, 0,00, 0,00, 0,00, 0,00, 0,00, 0,00, -0,01, 0,98
237, 0,00, 35615,34, 39666,45, 0,00, 0,00, 0,00, 0,00, 0,00, -0,01, -0,01, 0,98
238, 0,00, 51461,49, 35050,15, 0,00, 0,00, 0,00, 0,00, 0,00, -0,01, -0,01, 0,98
239, 0,00, 15680,44, 50604,57, 0,00, 0,00, 0,00, 0,00, 0,00, -0,01, -0,01, 0,98
240, 0,00, -23202,92, 65493,02, 0,00, 0,00, 0,00, 0,00, 0,00, -0,01, -0,01, 0,98
241, 0,00, -9321,21, 58199,61, 0,00, 0,00, 0,00, 0,00, 0,00, -0,01, -0,01, 0,98
242, 0,00, 35366,09, 39752,93, 0,00, 0,00, 0,00, 0,00, 0,00, -0,01, -0,01, 0,97
243, 0,00, 51528,17, 35015,53, 0,00, 0,00, 0,00, 0,00, 0,00, -0,01, -0,01, 0,97
244, 0,00, 15966,28, 50516,62, 0,00, 0,00, 0,00, 0,00, 0,00, -0,01, -0,01, 0,97
245, 0,00, -23074,76, 65489,34, 0,00, 0,00, 0,00, 0,00, 0,00, -0,01, -0,01, 0,97
246, 0,00, -9541,54, 58314,09, 0,00, 0,00, 0,00, 0,00, 0,00, -0,01, -0,01, 0,97
247, 0,00, 35269,66, 39796,61, 0,00, 0,00, 0,00, 0,00, 0,00, -0,02, -0,01, 0,97
248, 0,00, 51701,98, 34937,27, 0,00, 0,00, 0,00, 0,00, 0,00, -0,02, -0,01, 0,97
249, 0,00, 16227,28, 50391,02, 0,00, 0,00, 0,00, 0,00, 0,00, -0,02, -0,01, 0,97
250, 0,00, -22980,65, 65440,56, 0,00, 0,00, 0,00, 0,00, 0,00, -0,02, -0,01, 0,97
251, 0,00, -9796,34, 58392,39, 0,00, 0,00, 0,00, 0,00, 0,00, -0,02, -0,01, 0,97
252, 0,00, 34871,07, 39910,51, 0,00, 0,00, 0,00, 0,00, 0,00, -0,01, -0,01, 0,97
253, 0,00, 51699,45, 34889,64, 0,00, 0,00, 0,00, 0,00, 0,00, -0,01, -0,01, 0,97
254, 0,00, 16474,11, 50283,69, 0,00, 0,00, 0,00, 0,00, 0,00, -0,01, -0,01, 0,97
255, 0,00, -22869,41, 65426,08, 0,00, 0,00, 0,00, 0,00, 0,00, -0,01, -0,01, 0,97
0, 0,00, -9985,17, 58479,18, 0,00, 0,00, 0,00, 0,00, 0,00, -0,01, -0,01, 0,97
1, 0,00, 34710,11, 39949,59, 0,00, 0,00, 0,00, 0,00, 0,00, -0,01, -0,01, 0,98
2, 0,00, 51782,20, 34818,90, 0,00, 0,00, 0,00, 0,00, 0,00, -0,01, -0,01, 0,98
3, 0,00, 16769,93, 50129,71, 0,00, 0,00, 0,00, 0,00, 0,00, -0,01, -0,01, 0,98
4, 0,00, -22704,01, 65351,38, 0,00, 0,00, 0,00, 0,00, 0,00, -0,01, -0,01, 0,98
5, 0,00, -10228,14, 58571,38, 0,00, 0,00, 0,00, 0,00, 0,00, -0,01, -0,01, 0,98
6, 0,00, 34348,21, 40058,41, 0,00, 0,00, 0,00, 0,00, 0,00, -0,01, -0,01, 0,98
7, 0,00, 51820,71, 34770,08, 0,00, 0,00, 0,00, 0,00, 0,00, -0,01, -0,01, 0,98
8, 0,00, 17020,94, 50035,61, 0,00, 0,00, 0,00, 0,00, 0,00, -0,01, -0,01, 0,98
9, 0,00, -22591,64, 65344,16, 0,00, 0,00, 0,00, 0,00, 0,00, -0,01, -0,01, 0,98
10, 0,00, -10474,23, 58681,91, 0,00, 0,00, 0,00, 0,00, 0,00, -0,01, -0,01, 0,98
11, 0,00, 34069,45, 40155,71, 0,00, 0,00, 0,00, 0,00, 0,00, -0,01, -0,01, 0,98
12, 0,00, 51887,70, 34740,60, 0,00, 0,00, 0,00, 0,00, 0,00, -0,01, -0,01, 0,97
13, 0,00, 17315,20, 49943,50, 0,00, 0,00, 0,00, 0,00, 0,00, -0,01, -0,01, 0,97
14, 0,00, -22381,05, 65318,79, 0,00, 0,00, 0,00, 0,00, 0,00, -0,01, -0,01, 0,97
15, 0,00, -10565,02, 58772,61, 0,00, 0,00, 0,00, 0,00, 0,00, -0,01, -0,01, 0,97
16, 0,00, 33782,92, 40283,07, 0,00, 0,00, 0,00, 0,00, 0,00, -0,01, -0,01, 0,97
17, 0,00, 51899,21, 34727,32, 0,00, 0,00, 0,00, 0,00, 0,00, -0,01, -0,01, 0,97
18, 0,00, 17580,76, 49853,06, 0,00, 0,00, 0,00, 0,00, 0,00, -0,01, -0,01, 0,97
19, 0,00, -22249,82, 65289,40, 0,00, 0,00, 0,00, 0,00, 0,00, -0,01, -0,01, 0,97
20, 0,00, -10808,28, 58858,58, 0,00, 0,00, 0,00, 0,00, 0,00, -0,01, -0,01, 0,97
21, 0,00, 33545,90, 40360,61, 0,00, 0,00, 0,00, 0,00, 0,00, -0,01, -0,01, 0,97
22, 0,00, 51989,24, 34665,30, 0,00, 0,00, 0,00, 0,00, 0,00, -0,01, -0,01, 0,97
23, 0,00, 17840,47, 49729,63, 0,00, 0,00, 0,00, 0,00, 0,00, -0,01, -0,01, 0,97
24, 0,00, -22158,24, 65249,81, 0,00, 0,00, 0,00, 0,00, 0,00, -0,01, -0,01, 0,97
25, 0,00, -11078,49, 58949,84, 0,00, 0,00, 0,00, 0,00, 0,00, -0,01, -0,01, 0,97
26, 0,00, 33100,43, 40461,04, 0,00, 0,00, 0,00, 0,00, 0,00, -0,01, -0,01, 0,97
27, 0,00, 51927,48, 34603,70, 0,00, 0,00, 0,00, 0,00, 0,00, -0,01, -0,01, 0,97
28, 0,00, 18104,53, 49588,10, 0,00, 0,00, 0,00, 0,00, 0,00, -0,01, -0,01, 0,97
29, 0,00, -21972,03, 65196,15, 0,00, 0,00, 0,00, 0,00, 0,00, -0,01, -0,01, 0,97
30, 0,00, -11218,30, 59015,44, 0,00, 0,00, 0,00, 0,00, 0,00, -0,01, -0,01, 0,97
31, 0,00, 32946,85, 40508,27, 0,00, 0,00, 0,00, 0,00, 0,00, -0,01, -0,01, 0,97
32, 0,00, 52050,04, 34549,74, 0,00, 0,00, 0,00, 0,00, 0,00, -0,01, -0,01, 0,97
33, 0,00, 18412,03, 49479,23, 0,00, 0,00, 0,00, 0,00, 0,00, -0,01, -0,01, 0,97
34, 0,00, -21805,60, 65168,83, 0,00, 0,00, 0,00, 0,00, 0,00, -0,01, -0,01, 0,97
35, 0,00, -11426,41, 59129,39, 0,00, 0,00, 0,00, 0,00, 0,00, -0,01, -0,01, 0,97
36, 0,00, 32670,22, 40614,35, 0,00, 0,00, 0,00, 0,00, 0,00, -0,01, -0,01, 0,97
37, 0,00, 52115,75, 34520,66, 0,00, 0,00, 0,00, 0,00, 0,00, -0,01, -0,01, 0,98
38, 0,00, 18701,23, 49397,13, 0,00, 0,00, 0,00, 0,00, 0,00, -0,01, -0,01, 0,98
39, 0,00, -21612,24, 65170,58, 0,00, 0,00, 0,00, 0,00, 0,00, -0,01, -0,01, 0,98
40, 0,00, -11585,22, 59244,48, 0,00, 0,00, 0,00, 0,00, 0,00, -0,01, -0,01, 0,98
41, 0,00, 32323,10, 40733,28, 0,00, 0,00, 0,00, 0,00, 0,00, -0,01, -0,01, 0,98
42, 0,00, 52022,90, 34509,33, 0,00, 0,00, 0,00, 0,00, 0,00, -0,01, -0,01, 0,98
43, 0,00, 18877,05, 49336,31, 0,00, 0,00, 0,00, 0,00, 0,00, -0,01, -0,01, 0,98
44, 0,00, -21466,50, 65161,14, 0,00, 0,00, 0,00, 0,00, 0,00, -0,01, -0,01, 0,98
45, 0,00, -11769,89, 59346,96, 0,00, 0,00, 0,00, 0,00, 0,00, -0,01, -0,01, 0,98
46, 0,00, 32109,71, 40786,23, 0,00, 0,00, 0,00, 0,00, 0,00, -0,01, -0,01, 0,98
47, 0,00, 52043,98, 34428,30, 0,00, 0,00, 0,00, 0,00, 0,00, -0,01, -0,01, 0,98
48, 0,00, 19115,68, 49207,90, 0,00, 0,00, 0,00, 0,00, 0,00, -0,01, -0,01, 0,98
49, 0,00, -21146,85, 65114,77, 0,00, 0,00, 0,00, 0,00, 0,00, -0,01, -0,01, 0,98
50, 0,00, -11677,18, 59407,40, 0,00, 0,00, 0,00, 0,00, 0,00, -0,01, -0,01, 0,98
51, 0,00, 31844,89, 40836,70, 0,00, 0,00, 0,00, 0,00, 0,00, -0,01, -0,01, 0,98
52, 0,00, 51709,29, 34361,18, 0,00, 0,00, 0,00, 0,00, 0,00, -0,01, -0,01, 0,98
53, 0,00, 19126,59, 49108,95, 0,00, 0,00, 0,00, 0,00, 0,00, -0,01, -0,01, 0,98
54, 0,00, -20833,61, 65119,48, 0,00, 0,00, 0,00, 0,00, 0,00, -0,01, -0,01, 0,98
55, 0,00, -11596,06, 59519,95, 0,00, 0,00, 0,00, 0,00, 0,00, -0,01, -0,01, 0,98
56, 0,00, 31597,56, 40932,57, 0,00, 0,00, 0,00, 0,00, 0,00, -0,01, -0,01, 0,98
57, 0,00, 51555,46, 34316,66, 0,00, 0,00, 0,00, 0,00, 0,00, -0,01, -0,01, 0,98
58, 0,00, 19251,00, 49006,33, 0,00, 0,00, 0,00, 0,00, 0,00, -0,01, -0,01, 0,98
59, 0,00, -20692,28, 65089,08, 0,00, 0,00, 0,00, 0,00, 0,00, -0,01, -0,01, 0,98
60, 0,00, -11697,00, 59627,88, 0,00, 0,00, 0,00, 0,00, 0,00, -0,01, -0,01, 0,98
61, 0,00, 31504,29, 41003,54, 0,00, 0,00, 0,00, 0,00, 0,00, -0,01, -0,01, 0,98
62, 0,00, 51622,94, 34241,17, 0,00, 0,00, 0,00, 0,00, 0,00, -0,01, -0,01, 0,98
63, 0,00, 19407,46, 48884,36, 0,00, 0,00, 0,00, 0,00, 0,00, -0,01, -0,01, 0,97
64, 0,00, -20528,98, 65059,09, 0,00, 0,00, 0,00, 0,00, 0,00, -0,01, -0,01, 0,97
65, 0,00, -11763,92, 59722,45, 0,00, 0,00, 0,00, 0,00, 0,00, -0,01, -0,01, 0,97
66, 0,00, 31255,27, 41128,19, 0,00, 0,00, 0,00, 0,00, 0,00, -0,01, -0,01, 0,97
67, 0,00, 51611,16, 34233,06, 0,00, 0,00, 0,00, 0,00, 0,00, -0,01, -0,01, 0,97
68, 0,00, 19599,08, 48770,27, 0,00, 0,00, 0,00, 0,00, 0,00, -0,00, -0,01, 0,97
69, 0,00, -20420,04, 65014,45, 0,00, 0,00, 0,00, 0,00, 0,00, -0,00, -0,01, 0,97
70, 0,00, -11956,48, 59828,69, 0,00, 0,00, 0,00, 0,00, 0,00, -0,00, -0,01, 0,97
71, 0,00, 31029,34, 41222,07, 0,00, 0,00, 0,00, 0,00, 0,00, -0,00, -0,01, 0,97
72, 0,00, 51649,47, 34202,28, 0,00, 0,00, 0,00, 0,00, 0,00, -0,00, -0,01, 0,97
73, 0,00, 19856,26, 48663,41, 0,00, 0,00, 0,00, 0,00, 0,00, -0,00, -0,01, 0,97
74, 0,00, -20292,63, 64943,53, 0,00, 0,00, 0,00, 0,00, 0,00, -0,01, -0,01, 0,97
75, 0,00, -12195,87, 59885,33, 0,00, 0,00, 0,00, 0,00, 0,00, -0,01, -0,01, 0,97
76, 0,00, 30761,52, 41309,22, 0,00, 0,00, 0,00, 0,00, 0,00, -0,01, -0,01, 0,97
77, 0,00, 51738,14, 34149,46, 0,00, 0,00, 0,00, 0,00, 0,00, -0,01, -0,01, 0,97
78, 0,00, 20202,53, 48508,56, 0,00, 0,00, 0,00, 0,00, 0,00, -0,01, -0,01, 0,97
79, 0,00, -20033,38, 64839,05, 0,00, 0,00, 0,00, 0,00, 0,00, -0,00, -0,01, 0,98
80, 0,00, -12302,36, 59951,58, 0,00, 0,00, 0,00, 0,00, 0,00, -0,00, -0,01, 0,98
81, 0,00, 30489,54, 41438,77, 0,00, 0,00, 0,00, 0,00, 0,00, -0,00, -0,01, 0,98
82, 0,00, 51729,38, 34133,84, 0,00, 0,00, 0,00, 0,00, 0,00, -0,00, -0,01, 0,98
83, 0,00, 20428,00, 48386,18, 0,00, 0,00, 0,00, 0,00, 0,00, -0,00, -0,01, 0,98
84, 0,00, -19931,65, 64812,82, 0,00, 0,00, 0,00, 0,00, 0,00, -0,01, -0,01, 0,98
85, 0,00, -12514,00, 60085,20, 0,00, 0,00, 0,00, 0,00, 0,00, -0,01, -0,01, 0,98
86, 0,00, 30378,66, 41520,73, 0,00, 0,00, 0,00, 0,00, 0,00, -0,01, -0,01, 0,98
87, 0,00, 51860,16, 34077,60, 0,00, 0,00, 0,00, 0,00, 0,00, -0,01, -0,01, 0,98
88, 0,00, 20644,05, 48298,36, 0,00, 0,00, 0,00, 0,00, 0,00, -0,01, -0,01, 0,98
89, 0,00, -19739,90, 64778,86, 0,00, 0,00, 0,00, 0,00, 0,00, -0,01, -0,01, 0,98
90, 0,00, -12629,09, 60190,99, 0,00, 0,00, 0,00, 0,00, 0,00, -0,01, -0,01, 0,98
91, 0,00, 30044,50, 41657,59, 0,00, 0,00, 0,00, 0,00, 0,00, -0,01, -0,01, 0,98
92, 0,00, 51746,84, 34053,51, 0,00, 0,00, 0,00, 0,00, 0,00, -0,01, -0,01, 0,98
93, 0,00, 20770,20, 48174,31, 0,00, 0,00, 0,00, 0,00, 0,00, -0,01, -0,01, 0,98
94, 0,00, -19606,48, 64723,48, 0,00, 0,00, 0,00, 0,00, 0,00, -0,01, -0,01, 0,97
95, 0,00, -12713,67, 60270,14, 0,00, 0,00, 0,00, 0,00, 0,00, -0,01, -0,01, 0,97
96, 0,00, 29889,33, 41751,31, 0,00, 0,00, 0,00, 0,00, 0,00, -0,01, -0,01, 0,97
97, 0,00, 51781,70, 34042,02, 0,00, 0,00, 0,00, 0,00, 0,00, -0,01, -0,01, 0,97
98, 0,00, 21047,99, 48045,72, 0,00, 0,00, 0,00, 0,00, 0,00, -0,01, -0,01, 0,97
99, 0,00, -19368,19, 64638,07, 0,00, 0,00, 0,00, 0,00, 0,00, -0,00, -0,01, 0,98
100, 0,00, -12864,46, 60351,90, 0,00, 0,00, 0,00, 0,00, 0,00, -0,00, -0,01, 0,98
101, 0,00, 29597,91, 41857,98, 0,00, 0,00, 0,00, 0,00, 0,00, -0,00, -0,01, 0,98
102, 0,00, 51819,52, 33986,07, 0,00, 0,00, 0,00, 0,00, 0,00, -0,00, -0,01, 0,98
103, 0,00, 21323,47, 47927,26, 0,00, 0,00, 0,00, 0,00, 0,00, -0,00, -0,01, 0,98
104, 0,00, -19223,21, 64584,87, 0,00, 0,00, 0,00, 0,00, 0,00, -0,00, -0,01, 0,98
105, 0,00, -13092,65, 60447,32, 0,00, 0,00, 0,00, 0,00, 0,00, -0,01, -0,01, 0,97
106, 0,00, 29303,11, 41984,82, 0,00, 0,00, 0,00, 0,00, 0,00, -0,01, -0,01, 0,97
107, 0,00, 51818,74, 33998,81, 0,00, 0,00, 0,00, 0,00, 0,00, -0,01, -0,01, 0,97
108, 0,00, 21581,30, 47812,79, 0,00, 0,00, 0,00, 0,00, 0,00, -0,01, -0,01, 0,97
109, 0,00, -19047,13, 64526,46, 0,00, 0,00, 0,00, 0,00, 0,00, -0,01, -0,01, 0,97
110, 0,00, -13258,83, 60536,90, 0,00, 0,00, 0,00, 0,00, 0,00, -0,01, -0,01, 0,97
111, 0,00, 29125,17, 42070,32, 0,00, 0,00, 0,00, 0,00, 0,00, -0,01, -0,01, 0,97
112, 0,00, 51919,73, 33951,92, 0,00, 0,00, 0,00, 0,00, 0,00, -0,01, -0,01, 0,97
113, 0,00, 21833,16, 47694,57, 0,00, 0,00, 0,00, 0,00, 0,00, -0,01, -0,01, 0,97
114, 0,00, -18902,91, 64466,39, 0,00, 0,00, 0,00, 0,00, 0,00, -0,01, -0,01, 0,97
115, 0,00, -13443,23, 60628,52, 0,00, 0,00, 0,00, 0,00, 0,00, -0,01, -0,01, 0,97
116, 0,00, 28776,51, 42219,96, 0,00, 0,00, 0,00, 0,00, 0,00, -0,01, -0,01, 0,97
117, 0,00, 51909,42, 33944,74, 0,00, 0,00, 0,00, 0,00, 0,00, -0,01, -0,01, 0,97
118, 0,00, 22145,21, 47566,88, 0,00, 0,00, 0,00, 0,00, 0,00, -0,01, -0,01, 0,97
119, 0,00, -18747,30, 64408,02, 0,00, 0,00, 0,00, 0,00, 0,00, -0,01, -0,01, 0,97
120, 0,00, -13656,92, 60718,64, 0,00, 0,00, 0,00, 0,00, 0,00, -0,01, -0,01, 0,97
121, 0,00, 28549,03, 42315,18, 0,00, 0,00, 0,00, 0,00, 0,00, -0,01, -0,01, 0,97
122, 0,00, 52000,93, 33912,91, 0,00, 0,00, 0,00, 0,00, 0,00, -0,01, -0,01, 0,97
123, 0,00, 22424,68, 47455,14, 0,00, 0,00, 0,00, 0,00, 0,00, -0,01, -0,01, 0,97
124, 0,00, -18554,32, 64341,04, 0,00, 0,00, 0,00, 0,00, 0,00, -0,01, -0,01, 0,97
125, 0,00, -13805,22, 60796,99, 0,00, 0,00, 0,00, 0,00, 0,00, -0,01, -0,01, 0,97
126, 0,00, 28296,26, 42414,24, 0,00, 0,00, 0,00, 0,00, 0,00, -0,01, -0,01, 0,97
127, 0,00, 51997,87, 33884,44, 0,00, 0,00, 0,00, 0,00, 0,00, -0,01, -0,01, 0,97
128, 0,00, 22610,46, 47351,50, 0,00, 0,00, 0,00, 0,00, 0,00, -0,01, -0,01, 0,97
129, 0,00, -18422,80, 64294,63, 0,00, 0,00, 0,00, 0,00, 0,00, -0,01, -0,01, 0,97
130, 0,00, -13962,22, 60884,16, 0,00, 0,00, 0,00, 0,00, 0,00, -0,01, -0,01, 0,97
131, 0,00, 28061,14, 42529,09, 0,00, 0,00, 0,00, 0,00, 0,00, -0,01, -0,01, 0,97
132, 0,00, 51994,69, 33870,36, 0,00, 0,00, 0,00, 0,00, 0,00, -0,01, -0,01, 0,97
133, 0,00, 22851,66, 47233,37, 0,00, 0,00, 0,00, 0,00, 0,00, -0,01, -0,01, 0,97
134, 0,00, -18277,51, 64229,43, 0,00, 0,00, 0,00, 0,00, 0,00, -0,01, -0,01, 0,97
135, 0,00, -14193,40, 60973,34, 0,00, 0,00, 0,00, 0,00, 0,00, -0,01, -0,01, 0,97
136, 0,00, 27732,95, 42658,21, 0,00, 0,00, 0,00, 0,00, 0,00, -0,01, -0,01, 0,98
137, 0,00, 52007,46, 33870,31, 0,00, 0,00, 0,00, 0,00, 0,00, -0,01, -0,01, 0,98
138, 0,00, 23122,30, 47135,00, 0,00, 0,00, 0,00, 0,00, 0,00, -0,01, -0,01, 0,98
139, 0,00, -18098,52, 64175,50, 0,00, 0,00, 0,00, 0,00, 0,00, -0,01, -0,01, 0,98
140, 0,00, -14336,83, 61051,48, 0,00, 0,00, 0,00, 0,00, 0,00, -0,01, -0,01, 0,98
141, 0,00, 27471,79, 42765,21, 0,00, 0,00, 0,00, 0,00, 0,00, -0,02, -0,02, 0,98
142, 0,00, 52005,96, 33839,51, 0,00, 0,00, 0,00, 0,00, 0,00, -0,02, -0,02, 0,98
143, 0,00, 23383,21, 47005,05, 0,00, 0,00, 0,00, 0,00, 0,00, -0,02, -0,02, 0,98
144, 0,00, -17952,74, 64103,59, 0,00, 0,00, 0,00, 0,00, 0,00, -0,02, -0,02, 0,98
145, 0,00, -14567,41, 61138,46, 0,00, 0,00, 0,00, 0,00, 0,00, -0,02, -0,02, 0,98
146, 0,00, 27244,52, 42843,98, 0,00, 0,00, 0,00, 0,00, 0,00, -0,01, -0,02, 0,98
147, 0,00, 52092,73, 33794,03, 0,00, 0,00, 0,00, 0,00, 0,00, -0,01, -0,02, 0,98
148, 0,00, 23623,83, 46892,19, 0,00, 0,00, 0,00, 0,00, 0,00, -0,01, -0,02, 0,98
149, 0,00, -17823,39, 64041,23, 0,00, 0,00, 0,00, 0,00, 0,00, -0,01, -0,02, 0,98
150, 0,00, -14793,70, 61224,00, 0,00, 0,00, 0,00, 0,00, 0,00, -0,01, -0,02, 0,98
151, 0,00, 26999,59, 42921,76, 0,00, 0,00, 0,00, 0,00, 0,00, -0,00, -0,02, 0,98
152, 0,00, 52111,66, 33757,48, 0,00, 0,00, 0,00, 0,00, 0,00, -0,00, -0,02, 0,98
153, 0,00, 23852,39, 46773,64, 0,00, 0,00, 0,00, 0,00, 0,00, -0,00, -0,02, 0,98
154, 0,00, -17633,45, 63966,53, 0,00, 0,00, 0,00, 0,00, 0,00, -0,00, -0,02, 0,98
155, 0,00, -14945,58, 61296,46, 0,00, 0,00, 0,00, 0,00, 0,00, -0,00, -0,02, 0,98
156, 0,00, 26711,67, 43052,01, 0,00, 0,00, 0,00, 0,00, 0,00, -0,01, -0,01, 0,98
157, 0,00, 52091,25, 33753,10, 0,00, 0,00, 0,00, 0,00, 0,00, -0,01, -0,01, 0,98
158, 0,00, 24124,66, 46660,63, 0,00, 0,00, 0,00, 0,00, 0,00, -0,01, -0,01, 0,98
159, 0,00, -17428,93, 63919,41, 0,00, 0,00, 0,00, 0,00, 0,00, -0,01, -0,01, 0,98
160, 0,00, -15096,79, 61390,58, 0,00, 0,00, 0,00, 0,00, 0,00, -0,01, -0,01, 0,98
161, 0,00, 26492,20, 43158,04, 0,00, 0,00, 0,00, 0,00, 0,00, -0,01, -0,01, 0,97
162, 0,00, 52104,11, 33740,05, 0,00, 0,00, 0,00, 0,00, 0,00, -0,01, -0,01, 0,97
163, 0,00, 24332,98, 46567,11, 0,00, 0,00, 0,00, 0,00, 0,00, -0,01, -0,01, 0,97
164, 0,00, -17239,81, 63840,43, 0,00, 0,00, 0,00, 0,00, 0,00, -0,01, -0,01, 0,97
165, 0,00, -15243,87, 61463,07, 0,00, 0,00, 0,00, 0,00, 0,00, -0,01, -0,01, 0,97
166, 0,00, 26184,78, 43283,21, 0,00, 0,00, 0,00, 0,00, 0,00, -0,01, -0,01, 0,97
167, 0,00, 52092,55, 33725,96, 0,00, 0,00, 0,00, 0,00, 0,00, -0,01, -0,01, 0,98
168, 0,00, 24576,97, 46443,21, 0,00, 0,00, 0,00, 0,00, 0,00, -0,01, -0,01, 0,98
169, 0,00, -17136,66, 63790,22, 0,00, 0,00, 0,00, 0,00, 0,00, -0,01, -0,01, 0,98
170, 0,00, -15472,91, 61564,28, 0,00, 0,00, 0,00, 0,00, 0,00, -0,01, -0,01, 0,98
171, 0,00, 25979,16, 43376,62, 0,00, 0,00, 0,00, 0,00, 0,00, -0,01, -0,01, 0,98
172, 0,00, 52200,33, 33691,48, 0,00, 0,00, 0,00, 0,00, 0,00, -0,01, -0,01, 0,97
173, 0,00, 24877,56, 46323,05, 0,00, 0,00, 0,00, 0,00, 0,00, -0,01, -0,01, 0,97
174, 0,00, -16879,75, 63693,17, 0,00, 0,00, 0,00, 0,00, 0,00, -0,01, -0,01, 0,97
175, 0,00, -15582,23, 61620,98, 0,00, 0,00, 0,00, 0,00, 0,00, -0,01, -0,01, 0,97
176, 0,00, 25744,00, 43484,89, 0,00, 0,00, 0,00, 0,00, 0,00, -0,01, -0,01, 0,97
177, 0,00, 52201,63, 33683,05, 0,00, 0,00, 0,00, 0,00, 0,00, -0,01, -0,01, 0,98
178, 0,00, 25124,79, 46206,98, 0,00, 0,00, 0,00, 0,00, 0,00, -0,01, -0,01, 0,98
179, 0,00, -16714,50, 63644,49, 0,00, 0,00, 0,00, 0,00, 0,00, -0,01, -0,01, 0,98
180, 0,00, -15813,23, 61738,11, 0,00, 0,00, 0,00, 0,00, 0,00, -0,01, -0,01, 0,98
181, 0,00, 25435,72, 43608,72, 0,00, 0,00, 0,00, 0,00, 0,00, -0,01, -0,01, 0,98
182, 0,00, 52193,07, 33673,37, 0,00, 0,00, 0,00, 0,00, 0,00, -0,01, -0,01, 0,97
183, 0,00, 25384,25, 46100,72, 0,00, 0,00, 0,00, 0,00, 0,00, -0,01, -0,01, 0,97
184, 0,00, -16555,20, 63578,35, 0,00, 0,00, 0,00, 0,00, 0,00, -0,01, -0,01, 0,97
185, 0,00, -16018,85, 61815,16, 0,00, 0,00, 0,00, 0,00, 0,00, -0,01, -0,01, 0,97
186, 0,00, 25170,59, 43705,44, 0,00, 0,00, 0,00, 0,00, 0,00, -0,01, -0,01, 0,97
187, 0,00, 52201,25, 33659,82, 0,00, 0,00, 0,00, 0,00, 0,00, -0,01, -0,01, 0,98
188, 0,00, 25609,98, 45999,35, 0,00, 0,00, 0,00, 0,00, 0,00, -0,01, -0,01, 0,98
189, 0,00, -16355,55, 63506,96, 0,00, 0,00, 0,00, 0,00, 0,00, -0,01, -0,01, 0,98
190, 0,00, -16183,76, 61894,48, 0,00, 0,00, 0,00, 0,00, 0,00, -0,01, -0,01, 0,98
191, 0,00, 24884,11, 43828,71, 0,00, 0,00, 0,00, 0,00, 0,00, -0,01, -0,01, 0,98
192, 0,00, 52179,27, 33652,05, 0,00, 0,00, 0,00, 0,00, 0,00, -0,01, -0,01, 0,98
193, 0,00, 25862,38, 45881,96, 0,00, 0,00, 0,00, 0,00, 0,00, -0,01, -0,01, 0,98
194, 0,00, -16217,22, 63446,52, 0,00, 0,00, 0,00, 0,00, 0,00, -0,01, -0,01, 0,98
195, 0,00, -16379,60, 61982,64, 0,00, 0,00, 0,00, 0,00, 0,00, -0,01, -0,01, 0,98
196, 0,00, 24673,51, 43916,80, 0,00, 0,00, 0,00, 0,00, 0,00, -0,01, -0,01, 0,98
197, 0,00, 52232,27, 33621,47, 0,00, 0,00, 0,00, 0,00, 0,00, -0,01, -0,01, 0,98
198, 0,00, 26081,42, 45780,86, 0,00, 0,00, 0,00, 0,00, 0,00, -0,00, -0,01, 0,97
199, 0,00, -16058,43, 63388,36, 0,00, 0,00, 0,00, 0,00, 0,00, -0,00, -0,01, 0,97
200, 0,00, -16584,03, 62062,88, 0,00, 0,00, 0,00, 0,00, 0,00, -0,00, -0,01, 0,97
201, 0,00, 24277,59, 44068,72, 0,00, 0,00, 0,00, 0,00, 0,00, -0,00, -0,01, 0,97
202, 0,00, 52131,11, 33649,16, 0,00, 0,00, 0,00, 0,00, 0,00, -0,00, -0,01, 0,97
203, 0,00, 26340,75, 45674,47, 0,00, 0,00, 0,00, 0,00, 0,00, -0,01, -0,01, 0,97
204, 0,00, -15844,08, 63309,13, 0,00, 0,00, 0,00, 0,00, 0,00, -0,01, -0,01, 0,97
205, 0,00, -16711,46, 62132,71, 0,00, 0,00, 0,00, 0,00, 0,00, -0,01, -0,01, 0,97
206, 0,00, 24103,40, 44153,57, 0,00, 0,00, 0,00, 0,00, 0,00, -0,01, -0,01, 0,97
207, 0,00, 52211,26, 33611,43, 0,00, 0,00, 0,00, 0,00, 0,00, -0,01, -0,01, 0,97
208, 0,00, 26561,52, 45571,16, 0,00, 0,00, 0,00, 0,00, 0,00, -0,01, -0,01, 0,97
209, 0,00, -15662,29, 63246,07, 0,00, 0,00, 0,00, 0,00, 0,00, -0,01, -0,01, 0,97
210, 0,00, -16871,30, 62213,69, 0,00, 0,00, 0,00, 0,00, 0,00, -0,01, -0,01, 0,97
211, 0,00, 23724,77, 44301,43, 0,00, 0,00, 0,00, 0,00, 0,00, -0,01, -0,01, 0,97
212, 0,00, 52092,50, 33639,44, 0,00, 0,00, 0,00, 0,00, 0,00, -0,01, -0,01, 0,97
213, 0,00, 26855,64, 45451,96, 0,00, 0,00, 0,00, 0,00, 0,00, -0,01, -0,01, 0,98
214, 0,00, -15469,40, 63172,33, 0,00, 0,00, 0,00, 0,00, 0,00, -0,01, -0,01, 0,98
215, 0,00, -17050,60, 62293,80, 0,00, 0,00, 0,00, 0,00, 0,00, -0,01, -0,01, 0,98
216, 0,00, 23525,12, 44390,65, 0,00, 0,00, 0,00, 0,00, 0,00, -0,01, -0,01, 0,98
217, 0,00, 52156,63, 33601,96, 0,00, 0,00, 0,00, 0,00, 0,00, -0,01, -0,01, 0,98
218, 0,00, 27087,14, 45337,85, 0,00, 0,00, 0,00, 0,00, 0,00, -0,01, -0,01, 0,98
219, 0,00, -15295,57, 63094,14, 0,00, 0,00, 0,00, 0,00, 0,00, -0,01, -0,01, 0,98
220, 0,00, -17216,79, 62361,07, 0,00, 0,00, 0,00, 0,00, 0,00, -0,01, -0,01, 0,98
221, 0,00, 23209,02, 44509,68, 0,00, 0,00, 0,00, 0,00, 0,00, -0,01, -0,01, 0,98
222, 0,00, 52077,39, 33613,31, 0,00, 0,00, 0,00, 0,00, 0,00, -0,01, -0,01, 0,98
223, 0,00, 27380,95, 45217,20, 0,00, 0,00, 0,00, 0,00, 0,00, -0,01, -0,02, 0,98
224, 0,00, -15012,66, 62995,17, 0,00, 0,00, 0,00, 0,00, 0,00, -0,01, -0,02, 0,98
225, 0,00, -17303,49, 62412,04, 0,00, 0,00, 0,00, 0,00, 0,00, -0,01, -0,02, 0,98
226, 0,00, 22918,99, 44626,69, 0,00, 0,00, 0,00, 0,00, 0,00, -0,01, -0,02, 0,98
227, 0,00, 52005,89, 33617,07, 0,00, 0,00, 0,00, 0,00, 0,00, -0,01, -0,02, 0,98
228, 0,00, 27579,23, 45106,85, 0,00, 0,00, 0,00, 0,00, 0,00, -0,01, -0,02, 0,98
229, 0,00, -14863,40, 62928,99, 0,00, 0,00, 0,00, 0,00, 0,00, -0,01, -0,02, 0,98
230, 0,00, -17515,70, 62509,36, 0,00, 0,00, 0,00, 0,00, 0,00, -0,01, -0,02, 0,98
231, 0,00, 22670,61, 44736,52, 0,00, 0,00, 0,00, 0,00, 0,00, -0,01, -0,02, 0,98
232, 0,00, 52049,34, 33602,34, 0,00, 0,00, 0,00, 0,00, 0,00, -0,01, -0,02, 0,98
233, 0,00, 27861,09, 44996,34, 0,00, 0,00, 0,00, 0,00, 0,00, -0,01, -0,02, 0,98
234, 0,00, -14630,04, 62855,54, 0,00, 0,00, 0,00, 0,00, 0,00, -0,01, -0,01, 0,99
235, 0,00, -17612,68, 62567,52, 0,00, 0,00, 0,00, 0,00, 0,00, -0,01, -0,01, 0,99
236, 0,00, 22400,47, 44848,02, 0,00, 0,00, 0,00, 0,00, 0,00, -0,01, -0,01, 0,99
237, 0,00, 52030,97, 33595,21, 0,00, 0,00, 0,00, 0,00, 0,00, -0,01, -0,01, 0,99
238, 0,00, 28141,54, 44878,30, 0,00, 0,00, 0,00, 0,00, 0,00, -0,01, -0,01, 0,99
239, 0,00, -14428,16, 62783,63, 0,00, 0,00, 0,00, 0,00, 0,00, -0,01, -0,01, 0,98
240, 0,00, -17760,92, 62647,20, 0,00, 0,00, 0,00, 0,00, 0,00, -0,01, -0,01, 0,98
241, 0,00, 22173,82, 44945,09, 0,00, 0,00, 0,00, 0,00, 0,00, -0,01, -0,01, 0,98
242, 0,00, 52017,49, 33590,63, 0,00, 0,00, 0,00, 0,00, 0,00, -0,01, -0,01, 0,98
243, 0,00, 28350,48, 44781,18, 0,00, 0,00, 0,00, 0,00, 0,00, -0,01, -0,01, 0,98
244, 0,00, -14235,67, 62699,12, 0,00, 0,00, 0,00, 0,00, 0,00, -0,01, -0,01, 0,98
245, 0,00, -17917,67, 62706,48, 0,00, 0,00, 0,00, 0,00, 0,00, -0,01, -0,01, 0,98
246, 0,00, 21850,42, 45072,36, 0,00, 0,00, 0,00, 0,00, 0,00, -0,01, -0,01, 0,98
247, 0,00, 51943,57, 33601,24, 0,00, 0,00, 0,00, 0,00, 0,00, -0,01, -0,01, 0,98
248, 0,00, 28572,39, 44675,44, 0,00, 0,00, 0,00, 0,00, 0,00, -0,01, -0,01, 0,98
249, 0,00, -14070,11, 62636,98, 0,00, 0,00, 0,00, 0,00, 0,00, -0,01, -0,01, 0,98
250, 0,00, -18100,51, 62789,91, 0,00, 0,00, 0,00, 0,00, 0,00, -0,01, -0,01, 0,98
251, 0,00, 21603,25, 45184,54, 0,00, 0,00, 0,00, 0,00, 0,00, -0,01, -0,01, 0,98
252, 0,00, 51970,96, 33591,23, 0,00, 0,00, 0,00, 0,00, 0,00, -0,01, -0,01, 0,98
253, 0,00, 28866,96, 44558,16, 0,00, 0,00, 0,00, 0,00, 0,00, -0,01, -0,01, 0,98
254, 0,00, -13859,80, 62560,36, 0,00, 0,00, 0,00, 0,00, 0,00, -0,01, -0,01, 0,98
255, 0,00, -18283,79, 62889,61, 0,00, 0,00, 0,00, 0,00, 0,00, -0,01, -0,01, 0,98
0, 0,00, 21358,23, 45291,94, 0,00, 0,00, 0,00, 0,00, 0,00, -0,01, -0,01, 0,98
1, 0,00, 51972,36, 33578,60, 0,00, 0,00, 0,00, 0,00, 0,00, -0,01, -0,01, 0,98
2, 0,00, 29086,55, 44454,27, 0,00, 0,00, 0,00, 0,00, 0,00, -0,01, -0,01, 0,98
3, 0,00, -13677,86, 62476,52, 0,00, 0,00, 0,00, 0,00, 0,00, -0,01, -0,01, 0,98
4, 0,00, -18443,25, 62940,57, 0,00, 0,00, 0,00, 0,00, 0,00, -0,01, -0,01, 0,98
5, 0,00, 21113,46, 45385,53, 0,00, 0,00, 0,00, 0,00, 0,00, -0,01, -0,01, 0,98
6, 0,00, 52004,66, 33553,12, 0,00, 0,00, 0,00, 0,00, 0,00, -0,01, -0,01, 0,98
7, 0,00, 29346,48, 44339,00, 0,00, 0,00, 0,00, 0,00, 0,00, -0,01, -0,01, 0,98
8, 0,00, -13448,73, 62401,04, 0,00, 0,00, 0,00, 0,00, 0,00, -0,01, -0,01, 0,98
9, 0,00, -18510,51, 62997,90, 0,00, 0,00, 0,00, 0,00, 0,00, -0,00, -0,01, 0,98
10, 0,00, 20866,31, 45509,67, 0,00, 0,00, 0,00, 0,00, 0,00, -0,00, -0,01, 0,98
11, 0,00, 51951,55, 33577,86, 0,00, 0,00, 0,00, 0,00, 0,00, -0,00, -0,01, 0,98
12, 0,00, 29575,96, 44232,78, 0,00, 0,00, 0,00, 0,00, 0,00, -0,00, -0,01, 0,98
13, 0,00, -13284,18, 62317,80, 0,00, 0,00, 0,00, 0,00, 0,00, -0,00, -0,01, 0,98
14, 0,00, -18728,17, 63077,31, 0,00, 0,00, 0,00, 0,00, 0,00, -0,01, -0,01, 0,99
15, 0,00, 20573,51, 45623,44, 0,00, 0,00, 0,00, 0,00, 0,00, -0,01, -0,01, 0,99
16, 0,00, 51927,13, 33579,89, 0,00, 0,00, 0,00, 0,00, 0,00, -0,01, -0,01, 0,99
17, 0,00, 29872,90, 44116,91, 0,00, 0,00, 0,00, 0,00, 0,00, -0,01, -0,01, 0,99
18, 0,00, -13053,71, 62230,14, 0,00, 0,00, 0,00, 0,00, 0,00, -0,01, -0,01, 0,99
19, 0,00, -18895,02, 63164,98, 0,00, 0,00, 0,00, 0,00, 0,00, -0,01, -0,01, 0,98
20, 0,00, 20423,62, 45722,13, 0,00, 0,00, 0,00, 0,00, 0,00, -0,01, -0,01, 0,98
21, 0,00, 52030,43, 33552,23, 0,00, 0,00, 0,00, 0,00, 0,00, -0,01, -0,01, 0,98
22, 0,00, 30067,52, 44029,71, 0,00, 0,00, 0,00, 0,00, 0,00, -0,01, -0,01, 0,98
23, 0,00, -12883,79, 62163,53, 0,00, 0,00, 0,00, 0,00, 0,00, -0,01, -0,01, 0,98
24, 0,00, -19058,01, 63215,83, 0,00, 0,00, 0,00, 0,00, 0,00, -0,01, -0,02, 0,97
25, 0,00, 20007,27, 45842,93, 0,00, 0,00, 0,00, 0,00, 0,00, -0,01, -0,02, 0,97
26, 0,00, 51838,97, 33586,60, 0,00, 0,00, 0,00, 0,00, 0,00, -0,01, -0,02, 0,97
27, 0,00, 30331,29, 43900,90, 0,00, 0,00, 0,00, 0,00, 0,00, -0,01, -0,02, 0,97
28, 0,00, -12645,01, 62079,04, 0,00, 0,00, 0,00, 0,00, 0,00, -0,01, -0,02, 0,97
29, 0,00, -19157,48, 63282,66, 0,00, 0,00, 0,00, 0,00, 0,00, -0,01, -0,01, 0,97
30, 0,00, 19899,40, 45916,20, 0,00, 0,00, 0,00, 0,00, 0,00, -0,01, -0,01, 0,97
31, 0,00, 51987,43, 33538,95, 0,00, 0,00, 0,00, 0,00, 0,00, -0,01, -0,01, 0,97
32, 0,00, 30550,21, 43808,43, 0,00, 0,00, 0,00, 0,00, 0,00, -0,01, -0,01, 0,97
33, 0,00, -12487,67, 62008,90, 0,00, 0,00, 0,00, 0,00, 0,00, -0,01, -0,01, 0,97
34, 0,00, -19346,31, 63363,19, 0,00, 0,00, 0,00, 0,00, 0,00, -0,01, -0,01, 0,97
35, 0,00, 19458,76, 46096,45, 0,00, 0,00, 0,00, 0,00, 0,00, -0,01, -0,01, 0,97
36, 0,00, 51761,25, 33612,17, 0,00, 0,00, 0,00, 0,00, 0,00, -0,01, -0,01, 0,97
37, 0,00, 30800,68, 43695,29, 0,00, 0,00, 0,00, 0,00, 0,00, -0,01, -0,01, 0,97
38, 0,00, -12228,59, 61908,36, 0,00, 0,00, 0,00, 0,00, 0,00, -0,01, -0,01, 0,97
39, 0,00, -19454,22, 63433,31, 0,00, 0,00, 0,00, 0,00, 0,00, -0,01, -0,01, 0,97
40, 0,00, 19308,51, 46173,36, 0,00, 0,00, 0,00, 0,00, 0,00, -0,01, -0,01, 0,97
41, 0,00, 51864,41, 33573,48, 0,00, 0,00, 0,00, 0,00, 0,00, -0,01, -0,01, 0,97
42, 0,00, 31040,27, 43583,29, 0,00, 0,00, 0,00, 0,00, 0,00, -0,01, -0,01, 0,97
43, 0,00, -12013,35, 61800,40, 0,00, 0,00, 0,00, 0,00, 0,00, -0,01, -0,01, 0,97
44, 0,00, -19582,34, 63474,91, 0,00, 0,00, 0,00, 0,00, 0,00, -0,01, -0,01, 0,97
45, 0,00, 18943,13, 46310,78, 0,00, 0,00, 0,00, 0,00, 0,00, -0,01, -0,01, 0,98
46, 0,00, 51683,69, 33614,70, 0,00, 0,00, 0,00, 0,00, 0,00, -0,01, -0,01, 0,98
47, 0,00, 31339,92, 43458,72, 0,00, 0,00, 0,00, 0,00, 0,00, -0,01, -0,01, 0,98
48, 0,00, -11797,21, 61724,03, 0,00, 0,00, 0,00, 0,00, 0,00, -0,01, -0,01, 0,98
49, 0,00, -19803,00, 63561,96, 0,00, 0,00, 0,00, 0,00, 0,00, -0,01, -0,01, 0,98
50, 0,00, 18688,38, 46417,26, 0,00, 0,00, 0,00, 0,00, 0,00, -0,01, -0,02, 0,98
51, 0,00, 51721,55, 33591,61, 0,00, 0,00, 0,00, 0,00, 0,00, -0,01, -0,02, 0,98
52, 0,00, 31570,68, 43338,09, 0,00, 0,00, 0,00, 0,00, 0,00, -0,01, -0,02, 0,98
53, 0,00, -11540,07, 61619,69, 0,00, 0,00, 0,00, 0,00, 0,00, -0,01, -0,02, 0,98
54, 0,00, -19882,99, 63624,17, 0,00, 0,00, 0,00, 0,00, 0,00, -0,01, -0,02, 0,98
55, 0,00, 18341,91, 46568,74, 0,00, 0,00, 0,00, 0,00, 0,00, -0,01, -0,02, 0,98
56, 0,00, 51556,49, 33646,28, 0,00, 0,00, 0,00, 0,00, 0,00, -0,01, -0,02, 0,98
57, 0,00, 31845,27, 43235,22, 0,00, 0,00, 0,00, 0,00, 0,00, -0,01, -0,02, 0,98
58, 0,00, -11308,13, 61540,18, 0,00, 0,00, 0,00, 0,00, 0,00, -0,01, -0,02, 0,98
59, 0,00, -20024,26, 63684,32, 0,00, 0,00, 0,00, 0,00, 0,00, -0,01, -0,02, 0,98
60, 0,00, 18133,66, 46666,42, 0,00, 0,00, 0,00, 0,00, 0,00, -0,01, -0,02, 0,97
61, 0,00, 51610,67, 33630,19, 0,00, 0,00, 0,00, 0,00, 0,00, -0,01, -0,02, 0,97
62, 0,00, 32119,81, 43124,36, 0,00, 0,00, 0,00, 0,00, 0,00, -0,01, -0,02, 0,97
63, 0,00, -11029,80, 61437,95, 0,00, 0,00, 0,00, 0,00, 0,00, -0,01, -0,02, 0,97
64, 0,00, -20164,29, 63767,25, 0,00, 0,00, 0,00, 0,00, 0,00, -0,01, -0,02, 0,97
65, 0,00, 17776,59, 46813,22, 0,00, 0,00, 0,00, 0,00, 0,00, -0,01, -0,02, 0,97
66, 0,00, 51429,77, 33684,26, 0,00, 0,00, 0,00, 0,00, 0,00, -0,01, -0,02, 0,97
67, 0,00, 32335,89, 43019,82, 0,00, 0,00, 0,00, 0,00, 0,00, -0,01, -0,02, 0,97
68, 0,00, -10847,90, 61357,97, 0,00, 0,00, 0,00, 0,00, 0,00, -0,01, -0,02, 0,97
69, 0,00, -20336,80, 63825,85, 0,00, 0,00, 0,00, 0,00, 0,00, -0,01, -0,02, 0,97
70, 0,00, 17538,88, 46919,11, 0,00, 0,00, 0,00, 0,00, 0,00, -0,01, -0,02, 0,97
71, 0,00, 51480,67, 33665,26, 0,00, 0,00, 0,00, 0,00, 0,00, -0,00, -0,01, 0,96
72, 0,00, 32596,80, 42908,29, 0,00, 0,00, 0,00, 0,00, 0,00, -0,00, -0,01, 0,96
73, 0,00, -10561,36, 61248,36, 0,00, 0,00, 0,00, 0,00, 0,00, -0,00, -0,01, 0,96
74, 0,00, -20398,16, 63872,16, 0,00, 0,00, 0,00, 0,00, 0,00, -0,00, -0,01, 0,96
75, 0,00, 17255,57, 47043,56, 0,00, 0,00, 0,00, 0,00, 0,00, -0,00, -0,01, 0,96
76, 0,00, 51337,20, 33695,97, 0,00, 0,00, 0,00, 0,00, 0,00, -0,01, -0,01, 0,97
77, 0,00, 32857,27, 42778,46, 0,00, 0,00, 0,00, 0,00, 0,00, -0,01, -0,01, 0,97
78, 0,00, -10299,53, 61141,47, 0,00, 0,00, 0,00, 0,00, 0,00, -0,01, -0,01, 0,97
79, 0,00, -20523,59, 63937,81, 0,00, 0,00, 0,00, 0,00, 0,00, -0,01, -0,01, 0,97
80, 0,00, 16932,45, 47179,37, 0,00, 0,00, 0,00, 0,00, 0,00, -0,01, -0,01, 0,97
81, 0,00, 51231,40, 33736,27, 0,00, 0,00, 0,00, 0,00, 0,00, -0,01, -0,01, 0,97
82, 0,00, 33098,42, 42689,35, 0,00, 0,00, 0,00, 0,00, 0,00, -0,01, -0,01, 0,97
83, 0,00, -10087,10, 61074,48, 0,00, 0,00, 0,00, 0,00, 0,00, -0,01, -0,01, 0,97
84, 0,00, -20675,56, 64022,30, 0,00, 0,00, 0,00, 0,00, 0,00, -0,01, -0,01, 0,97
85, 0,00, 16638,64, 47303,13, 0,00, 0,00, 0,00, 0,00, 0,00, -0,01, -0,01, 0,97
86, 0,00, 51173,96, 33740,92, 0,00, 0,00, 0,00, 0,00, 0,00, -0,01, -0,01, 0,97
87, 0,00, 33306,13, 42593,21, 0,00, 0,00, 0,00, 0,00, 0,00, -0,01, -0,01, 0,97
88, 0,00, -9842,50, 60980,12, 0,00, 0,00, 0,00, 0,00, 0,00, -0,01, -0,01, 0,97
89, 0,00, -20803,91, 64082,45, 0,00, 0,00, 0,00, 0,00, 0,00, -0,01, -0,01, 0,97
90, 0,00, 16364,78, 47416,61, 0,00, 0,00, 0,00, 0,00, 0,00, -0,01, -0,01, 0,97
91, 0,00, 51140,25, 33738,57, 0,00, 0,00, 0,00, 0,00, 0,00, -0,01, -0,01, 0,97
92, 0,00, 33579,61, 42447,66, 0,00, 0,00, 0,00, 0,00, 0,00, -0,01, -0,01, 0,97
93, 0,00, -9616,73, 60871,24, 0,00, 0,00, 0,00, 0,00, 0,00, -0,01, -0,01, 0,97
94, 0,00, -20921,50, 64130,59, 0,00, 0,00, 0,00, 0,00, 0,00, -0,01, -0,01, 0,97
95, 0,00, 16083,73, 47532,73, 0,00, 0,00, 0,00, 0,00, 0,00, -0,01, -0,01, 0,97
96, 0,00, 51023,98, 33777,46, 0,00, 0,00, 0,00, 0,00, 0,00, -0,01, -0,01, 0,98
97, 0,00, 33855,20, 42345,11, 0,00, 0,00, 0,00, 0,00, 0,00, -0,01, -0,01, 0,98
98, 0,00, -9341,15, 60774,91, 0,00, 0,00, 0,00, 0,00, 0,00, -0,01, -0,01, 0,98
99, 0,00, -21027,38, 64191,35, 0,00, 0,00, 0,00, 0,00, 0,00, -0,01, -0,01, 0,98
100, 0,00, 15818,64, 47643,84, 0,00, 0,00, 0,00, 0,00, 0,00, -0,01, -0,01, 0,98
101, 0,00, 50971,00, 33787,39, 0,00, 0,00, 0,00, 0,00, 0,00, -0,01, -0,01, 0,98
102, 0,00, 34049,21, 42257,47, 0,00, 0,00, 0,00, 0,00, 0,00, -0,01, -0,01, 0,98
103, 0,00, -9156,62, 60686,86, 0,00, 0,00, 0,00, 0,00, 0,00, -0,01, -0,01, 0,98
104, 0,00, -21211,45, 64253,86, 0,00, 0,00, 0,00, 0,00, 0,00, -0,01, -0,01, 0,98
105, 0,00, 15466,60, 47783,42, 0,00, 0,00, 0,00, 0,00, 0,00, -0,01, -0,01, 0,98
106, 0,00, 50819,46, 33831,18, 0,00, 0,00, 0,00, 0,00, 0,00, -0,01, -0,01, 0,98
107, 0,00, 34299,69, 42147,72, 0,00, 0,00, 0,00, 0,00, 0,00, -0,01, -0,01, 0,98
108, 0,00, -8906,59, 60602,82, 0,00, 0,00, 0,00, 0,00, 0,00, -0,01, -0,01, 0,98
109, 0,00, -21340,71, 64337,73, 0,00, 0,00, 0,00, 0,00, 0,00, -0,01, -0,01, 0,98
110, 0,00, 15257,95, 47897,35, 0,00, 0,00, 0,00, 0,00, 0,00, -0,01, -0,01, 0,98
111, 0,00, 50853,08, 33840,09, 0,00, 0,00, 0,00, 0,00, 0,00, -0,01, -0,01, 0,98
112, 0,00, 34531,25, 42061,60, 0,00, 0,00, 0,00, 0,00, 0,00, -0,01, -0,01, 0,98
113, 0,00, -8652,49, 60510,20, 0,00, 0,00, 0,00, 0,00, 0,00, -0,01, -0,01, 0,98
114, 0,00, -21427,32, 64391,20, 0,00, 0,00, 0,00, 0,00, 0,00, -0,01, -0,01, 0,98
115, 0,00, 14927,75, 48024,18, 0,00, 0,00, 0,00, 0,00, 0,00, -0,01, -0,01, 0,98
116, 0,00, 50725,76, 33846,20, 0,00, 0,00, 0,00, 0,00, 0,00, -0,01, -0,01, 0,98
117, 0,00, 34770,95, 41931,31, 0,00, 0,00, 0,00, 0,00, 0,00, -0,00, -0,02, 0,98
118, 0,00, -8435,01, 60407,55, 0,00, 0,00, 0,00, 0,00, 0,00, -0,00, -0,02, 0,98
119, 0,00, -21564,78, 64438,16, 0,00, 0,00, 0,00, 0,00, 0,00, -0,00, -0,02, 0,98
120, 0,00, 14621,88, 48138,13, 0,00, 0,00, 0,00, 0,00, 0,00, -0,00, -0,02, 0,98
121, 0,00, 50638,05, 33857,10, 0,00, 0,00, 0,00, 0,00, 0,00, -0,00, -0,02, 0,98
122, 0,00, 35033,52, 41809,96, 0,00, 0,00, 0,00, 0,00, 0,00, -0,00, -0,02, 0,97
123, 0,00, -8176,27, 60312,52, 0,00, 0,00, 0,00, 0,00, 0,00, -0,00, -0,02, 0,97
124, 0,00, -21674,24, 64499,38, 0,00, 0,00, 0,00, 0,00, 0,00, -0,00, -0,02, 0,97
125, 0,00, 14374,50, 48251,52, 0,00, 0,00, 0,00, 0,00, 0,00, -0,00, -0,02, 0,97
126, 0,00, 50584,48, 33889,22, 0,00, 0,00, 0,00, 0,00, 0,00, -0,00, -0,02, 0,97
127, 0,00, 35248,70, 41722,86, 0,00, 0,00, 0,00, 0,00, 0,00, -0,01, -0,02, 0,98
128, 0,00, -7951,97, 60221,99, 0,00, 0,00, 0,00, 0,00, 0,00, -0,01, -0,02, 0,98
129, 0,00, -21778,02, 64555,10, 0,00, 0,00, 0,00, 0,00, 0,00, -0,01, -0,02, 0,98
130, 0,00, 14072,01, 48381,94, 0,00, 0,00, 0,00, 0,00, 0,00, -0,01, -0,02, 0,98
131, 0,00, 50412,70, 33938,35, 0,00, 0,00, 0,00, 0,00, 0,00, -0,01, -0,02, 0,98
132, 0,00, 35475,44, 41620,64, 0,00, 0,00, 0,00, 0,00, 0,00, -0,01, -0,02, 0,98
133, 0,00, -7725,68, 60131,69, 0,00, 0,00, 0,00, 0,00, 0,00, -0,01, -0,01, 0,99
134, 0,00, -21934,28, 64628,34, 0,00, 0,00, 0,00, 0,00, 0,00, -0,01, -0,01, 0,99
135, 0,00, 13795,81, 48513,10, 0,00, 0,00, 0,00, 0,00, 0,00, -0,01, -0,01, 0,99
136, 0,00, 50417,06, 33947,70, 0,00, 0,00, 0,00, 0,00, 0,00, -0,01, -0,01, 0,99
137, 0,00, 35765,90, 41494,92, 0,00, 0,00, 0,00, 0,00, 0,00, -0,01, -0,01, 0,99
138, 0,00, -7425,74, 60001,54, 0,00, 0,00, 0,00, 0,00, 0,00, -0,01, -0,01, 0,98
139, 0,00, -22021,99, 64662,30, 0,00, 0,00, 0,00, 0,00, 0,00, -0,01, -0,01, 0,98
140, 0,00, 13568,36, 48589,50, 0,00, 0,00, 0,00, 0,00, 0,00, -0,01, -0,01, 0,98
141, 0,00, 50396,30, 33933,81, 0,00, 0,00, 0,00, 0,00, 0,00, -0,01, -0,01, 0,98
142, 0,00, 35964,65, 41398,31, 0,00, 0,00, 0,00, 0,00, 0,00, -0,01, -0,01, 0,98
143, 0,00, -7211,39, 59912,13, 0,00, 0,00, 0,00, 0,00, 0,00, -0,01, -0,01, 0,98
144, 0,00, -22117,83, 64715,32, 0,00, 0,00, 0,00, 0,00, 0,00, -0,01, -0,01, 0,98
145, 0,00, 13261,27, 48728,84, 0,00, 0,00, 0,00, 0,00, 0,00, -0,01, -0,01, 0,98
146, 0,00, 50249,92, 33966,61, 0,00, 0,00, 0,00, 0,00, 0,00, -0,01, -0,01, 0,98
147, 0,00, 36236,67, 41276,83, 0,00, 0,00, 0,00, 0,00, 0,00, -0,01, -0,01, 0,98
148, 0,00, -6920,64, 59805,60, 0,00, 0,00, 0,00, 0,00, 0,00, -0,01, -0,01, 0,98
149, 0,00, -22229,97, 64771,02, 0,00, 0,00, 0,00, 0,00, 0,00, -0,01, -0,01, 0,98
150, 0,00, 13057,58, 48822,55, 0,00, 0,00, 0,00, 0,00, 0,00, -0,01, -0,01, 0,98
151, 0,00, 50337,18, 33952,37, 0,00, 0,00, 0,00, 0,00, 0,00, -0,01, -0,01, 0,98
152, 0,00, 36481,58, 41179,80, 0,00, 0,00, 0,00, 0,00, 0,00, -0,01, -0,01, 0,98
153, 0,00, -6713,12, 59726,56, 0,00, 0,00, 0,00, 0,00, 0,00, -0,00, -0,01, 0,97
154, 0,00, -22323,31, 64834,34, 0,00, 0,00, 0,00, 0,00, 0,00, -0,00, -0,01, 0,97
155, 0,00, 12729,07, 48979,67, 0,00, 0,00, 0,00, 0,00, 0,00, -0,00, -0,01, 0,97
156, 0,00, 50110,42, 34038,13, 0,00, 0,00, 0,00, 0,00, 0,00, -0,00, -0,01, 0,97
157, 0,00, 36734,60, 41078,06, 0,00, 0,00, 0,00, 0,00, 0,00, -0,00, -0,01, 0,97
158, 0,00, -6414,86, 59617,93, 0,00, 0,00, 0,00, 0,00, 0,00, -0,01, -0,02, 0,97
159, 0,00, -22435,32, 64884,68, 0,00, 0,00, 0,00, 0,00, 0,00, -0,01, -0,02, 0,97
160, 0,00, 12454,91, 49091,34, 0,00, 0,00, 0,00, 0,00, 0,00, -0,01, -0,02, 0,97
161, 0,00, 50079,08, 34039,09, 0,00, 0,00, 0,00, 0,00, 0,00, -0,01, -0,02, 0,97
162, 0,00, 36930,76, 40972,00, 0,00, 0,00, 0,00, 0,00, 0,00, -0,01, -0,02, 0,97
163, 0,00, -6220,85, 59512,10, 0,00, 0,00, 0,00, 0,00, 0,00, -0,01, -0,02, 0,97
164, 0,00, -22565,07, 64923,75, 0,00, 0,00, 0,00, 0,00, 0,00, -0,01, -0,02, 0,97
165, 0,00, 12097,50, 49222,65, 0,00, 0,00, 0,00, 0,00, 0,00, -0,01, -0,02, 0,97
166, 0,00, 49856,61, 34095,55, 0,00, 0,00, 0,00, 0,00, 0,00, -0,01, -0,02, 0,97
167, 0,00, 37192,00, 40846,61, 0,00, 0,00, 0,00, 0,00, 0,00, -0,01, -0,02, 0,97
168, 0,00, -5920,06, 59392,54, 0,00, 0,00, 0,00, 0,00, 0,00, -0,01, -0,02, 0,97
169, 0,00, -22591,00, 64957,52, 0,00, 0,00, 0,00, 0,00, 0,00, -0,01, -0,01, 0,98
170, 0,00, 11900,25, 49302,43, 0,00, 0,00, 0,00, 0,00, 0,00, -0,01, -0,01, 0,98
171, 0,00, 49780,42, 34101,92, 0,00, 0,00, 0,00, 0,00, 0,00, -0,01, -0,01, 0,98
172, 0,00, 37358,53, 40752,26, 0,00, 0,00, 0,00, 0,00, 0,00, -0,01, -0,01, 0,98
173, 0,00, -5719,70, 59295,40, 0,00, 0,00, 0,00, 0,00, 0,00, -0,01, -0,01, 0,98
174, 0,00, -22731,72, 65001,06, 0,00, 0,00, 0,00, 0,00, 0,00, -0,01, -0,01, 0,97
175, 0,00, 11566,51, 49436,89, 0,00, 0,00, 0,00, 0,00, 0,00, -0,01, -0,01, 0,97
176, 0,00, 49585,18, 34175,23, 0,00, 0,00, 0,00, 0,00, 0,00, -0,01, -0,01, 0,97
177, 0,00, 37608,55, 40668,44, 0,00, 0,00, 0,00, 0,00, 0,00, -0,01, -0,01, 0,97
178, 0,00, -5472,71, 59209,39, 0,00, 0,00, 0,00, 0,00, 0,00, -0,01, -0,01, 0,97
179, 0,00, -22837,22, 65060,18, 0,00, 0,00, 0,00, 0,00, 0,00, -0,01, -0,01, 0,98
180, 0,00, 11307,77, 49570,56, 0,00, 0,00, 0,00, 0,00, 0,00, -0,01, -0,01, 0,98
181, 0,00, 49526,14, 34207,73, 0,00, 0,00, 0,00, 0,00, 0,00, -0,01, -0,01, 0,98
182, 0,00, 37826,91, 40568,73, 0,00, 0,00, 0,00, 0,00, 0,00, -0,01, -0,01, 0,98
183, 0,00, -5167,30, 59080,91, 0,00, 0,00, 0,00, 0,00, 0,00, -0,01, -0,01, 0,98
184, 0,00, -22885,12, 65094,22, 0,00, 0,00, 0,00, 0,00, 0,00, -0,01, -0,01, 0,98
185, 0,00, 11015,32, 49695,53, 0,00, 0,00, 0,00, 0,00, 0,00, -0,01, -0,01, 0,98
186, 0,00, 49349,18, 34257,24, 0,00, 0,00, 0,00, 0,00, 0,00, -0,01, -0,01, 0,98
187, 0,00, 38077,40, 40443,63, 0,00, 0,00, 0,00, 0,00, 0,00, -0,01, -0,01, 0,98
188, 0,00, -4907,84, 58967,88, 0,00, 0,00, 0,00, 0,00, 0,00, -0,01, -0,01, 0,98
189, 0,00, -23017,31, 65145,34, 0,00, 0,00, 0,00, 0,00, 0,00, -0,01, -0,01, 0,97
190, 0,00, 10668,69, 49815,69, 0,00, 0,00, 0,00, 0,00, 0,00, -0,01, -0,01, 0,97
191, 0,00, 49221,33, 34278,61, 0,00, 0,00, 0,00, 0,00, 0,00, -0,01, -0,01, 0,97
192, 0,00, 38291,09, 40340,52, 0,00, 0,00, 0,00, 0,00, 0,00, -0,01, -0,01, 0,97
193, 0,00, -4645,16, 58862,00, 0,00, 0,00, 0,00, 0,00, 0,00, -0,01, -0,01, 0,97
194, 0,00, -23087,43, 65185,38, 0,00, 0,00, 0,00, 0,00, 0,00, -0,01, -0,01, 0,97
195, 0,00, 10421,63, 49934,76, 0,00, 0,00, 0,00, 0,00, 0,00, -0,01, -0,01, 0,97
196, 0,00, 49103,27, 34315,54, 0,00, 0,00, 0,00, 0,00, 0,00, -0,01, -0,01, 0,97
197, 0,00, 38512,75, 40240,20, 0,00, 0,00, 0,00, 0,00, 0,00, -0,01, -0,01, 0,97
198, 0,00, -4393,55, 58759,67, 0,00, 0,00, 0,00, 0,00, 0,00, -0,01, -0,01, 0,97
199, 0,00, -23123,19, 65222,41, 0,00, 0,00, 0,00, 0,00, 0,00, -0,01, -0,01, 0,97
200, 0,00, 10202,23, 50044,95, 0,00, 0,00, 0,00, 0,00, 0,00, -0,01, -0,01, 0,97
201, 0,00, 48962,14, 34374,16, 0,00, 0,00, 0,00, 0,00, 0,00, -0,01, -0,01, 0,97
202, 0,00, 38728,98, 40152,34, 0,00, 0,00, 0,00, 0,00, 0,00, -0,01, -0,01, 0,97
203, 0,00, -4158,65, 58677,82, 0,00, 0,00, 0,00, 0,00, 0,00, -0,01, -0,01, 0,97
204, 0,00, -23263,63, 65300,26, 0,00, 0,00, 0,00, 0,00, 0,00, -0,01, -0,01, 0,97
205, 0,00, 9878,67, 50181,88, 0,00, 0,00, 0,00, 0,00, 0,00, -0,01, -0,01, 0,97
206, 0,00, 48890,84, 34401,01, 0,00, 0,00, 0,00, 0,00, 0,00, -0,01, -0,01, 0,97
207, 0,00, 38954,93, 40061,72, 0,00, 0,00, 0,00, 0,00, 0,00, -0,01, -0,01, 0,97
208, 0,00, -3873,83, 58571,94, 0,00, 0,00, 0,00, 0,00, 0,00, -0,01, -0,01, 0,97
209, 0,00, -23270,85, 65327,82, 0,00, 0,00, 0,00, 0,00, 0,00, -0,01, -0,01, 0,97
210, 0,00, 9629,62, 50289,99, 0,00, 0,00, 0,00, 0,00, 0,00, -0,01, -0,02, 0,98
211, 0,00, 48716,12, 34439,07, 0,00, 0,00, 0,00, 0,00, 0,00, -0,01, -0,02, 0,98
212, 0,00, 39193,52, 39944,09, 0,00, 0,00, 0,00, 0,00, 0,00, -0,01, -0,02, 0,98
213, 0,00, -3607,71, 58445,36, 0,00, 0,00, 0,00, 0,00, 0,00, -0,01, -0,02, 0,98
214, 0,00, -23382,92, 65349,86, 0,00, 0,00, 0,00, 0,00, 0,00, -0,01, -0,02, 0,98
215, 0,00, 9350,94, 50389,59, 0,00, 0,00, 0,00, 0,00, 0,00, -0,00, -0,01, 0,98
216, 0,00, 48638,91, 34443,77, 0,00, 0,00, 0,00, 0,00, 0,00, -0,00, -0,01, 0,98
217, 0,00, 39411,11, 39828,48, 0,00, 0,00, 0,00, 0,00, 0,00, -0,00, -0,01, 0,98
218, 0,00, -3371,96, 58348,80, 0,00, 0,00, 0,00, 0,00, 0,00, -0,00, -0,01, 0,98
219, 0,00, -23477,42, 65397,02, 0,00, 0,00, 0,00, 0,00, 0,00, -0,00, -0,01, 0,98
220, 0,00, 9073,02, 50503,70, 0,00, 0,00, 0,00, 0,00, 0,00, -0,01, -0,01, 0,97
221, 0,00, 48537,39, 34477,74, 0,00, 0,00, 0,00, 0,00, 0,00, -0,01, -0,01, 0,97
222, 0,00, 39660,73, 39727,65, 0,00, 0,00, 0,00, 0,00, 0,00, -0,01, -0,01, 0,97
223, 0,00, -3084,16, 58244,29, 0,00, 0,00, 0,00, 0,00, 0,00, -0,01, -0,01, 0,97
224, 0,00, -23531,07, 65443,67, 0,00, 0,00, 0,00, 0,00, 0,00, -0,01, -0,01, 0,97
225, 0,00, 8789,06, 50638,08, 0,00, 0,00, 0,00, 0,00, 0,00, -0,01, -0,01, 0,97
226, 0,00, 48352,79, 34553,27, 0,00, 0,00, 0,00, 0,00, 0,00, 0,00, -0,01, 0,97
227, 0,00, 39861,38, 39647,61, 0,00, 0,00, 0,00, 0,00, 0,00, 0,00, -0,01, 0,97
228, 0,00, -2826,98, 58145,85, 0,00, 0,00, 0,00, 0,00, 0,00, 0,00, -0,01, 0,97
229, 0,00, -23604,58, 65494,16, 0,00, 0,00, 0,00, 0,00, 0,00, 0,00, -0,01, 0,97
230, 0,00, 8522,63, 50759,22, 0,00, 0,00, 0,00, 0,00, 0,00, 0,00, -0,01, 0,97
231, 0,00, 48302,88, 34568,83, 0,00, 0,00, 0,00, 0,00, 0,00, -0,01, -0,01, 0,97
232, 0,00, 40108,15, 39529,91, 0,00, 0,00, 0,00, 0,00, 0,00, -0,01, -0,01, 0,97
233, 0,00, -2577,13, 58028,28, 0,00, 0,00, 0,00, 0,00, 0,00, -0,01, -0,01, 0,97
234, 0,00, -23708,03, 65519,62, 0,00, 0,00, 0,00, 0,00, 0,00, -0,01, -0,01, 0,97
235, 0,00, 8226,13, 50854,98, 0,00, 0,00, 0,00, 0,00, 0,00, -0,01, -0,01, 0,97
236, 0,00, 48106,43, 34616,73, 0,00, 0,00, 0,00, 0,00, 0,00, -0,01, -0,01, 0,97
237, 0,00, 40306,63, 39437,71, 0,00, 0,00, 0,00, 0,00, 0,00, -0,01, -0,01, 0,97
238, 0,00, -2311,84, 57925,53, 0,00, 0,00, 0,00, 0,00, 0,00, -0,01, -0,01, 0,97
239, 0,00, -23778,95, 65555,79, 0,00, 0,00, 0,00, 0,00, 0,00, -0,01, -0,01, 0,97
240, 0,00, 7925,50, 50980,28, 0,00, 0,00, 0,00, 0,00, 0,00, -0,01, -0,01, 0,97
241, 0,00, 48008,26, 34655,95, 0,00, 0,00, 0,00, 0,00, 0,00, -0,01, -0,02, 0,98
242, 0,00, 40582,65, 39332,95, 0,00, 0,00, 0,00, 0,00, 0,00, -0,01, -0,02, 0,98
243, 0,00, -2027,79, 57809,36, 0,00, 0,00, 0,00, 0,00, 0,00, -0,01, -0,02, 0,98
244, 0,00, -23883,15, 65602,79, 0,00, 0,00, 0,00, 0,00, 0,00, -0,01, -0,02, 0,98
245, 0,00, 7614,52, 51099,84, 0,00, 0,00, 0,00, 0,00, 0,00, -0,01, -0,02, 0,98
246, 0,00, 47943,89, 34689,28, 0,00, 0,00, 0,00, 0,00, 0,00, -0,01, -0,02, 0,98
247, 0,00, 40849,00, 39254,20, 0,00, 0,00, 0,00, 0,00, 0,00, -0,01, -0,02, 0,98
248, 0,00, -1722,18, 57725,68, 0,00, 0,00, 0,00, 0,00, 0,00, -0,01, -0,02, 0,98
249, 0,00, -23997,37, 65658,05, 0,00, 0,00, 0,00, 0,00, 0,00, -0,01, -0,02, 0,98
250, 0,00, 7280,59, 51239,67, 0,00, 0,00, 0,00, 0,00, 0,00, -0,01, -0,02, 0,98
251, 0,00, 47744,60, 34763,51, 0,00, 0,00, 0,00, 0,00, 0,00, -0,01, -0,01, 0,98
252, 0,00, 41081,28, 39171,39, 0,00, 0,00, 0,00, 0,00, 0,00, -0,01, -0,01, 0,98
253, 0,00, -1474,37, 57644,14, 0,00, 0,00, 0,00, 0,00, 0,00, -0,01, -0,01, 0,98
254, 0,00, -24152,20, 65707,20, 0,00, 0,00, 0,00, 0,00, 0,00, -0,01, -0,01, 0,98
255, 0,00, 6849,89, 51353,71, 0,00, 0,00, 0,00, 0,00, 0,00, -0,01, -0,01, 0,98
0, 0,00, 47631,36, 34788,05, 0,00, 0,00, 0,00, 0,00, 0,00, -0,01, -0,01, 0,98
1, 0,00, 41412,59, 39079,54, 0,00, 0,00, 0,00, 0,00, 0,00, -0,02, -0,01, 0,98
2, 0,00, -1099,86, 57527,60, 0,00, 0,00, 0,00, 0,00, 0,00, -0,02, -0,01, 0,98
3, 0,00, -24235,86, 65723,83, 0,00, 0,00, 0,00, 0,00, 0,00, -0,02, -0,01, 0,98
4, 0,00, 6497,07, 51461,45, 0,00, 0,00, 0,00, 0,00, 0,00, -0,02, -0,01, 0,98
5, 0,00, 47481,09, 34827,17, 0,00, 0,00, 0,00, 0,00, 0,00, -0,02, -0,01, 0,98
6, 0,00, 41730,66, 38978,02, 0,00, 0,00, 0,00, 0,00, 0,00, -0,01, -0,02, 0,98
7, 0,00, -803,12, 57415,50, 0,00, 0,00, 0,00, 0,00, 0,00, -0,01, -0,02, 0,98
8, 0,00, -24389,35, 65743,83, 0,00, 0,00, 0,00, 0,00, 0,00, -0,01, -0,02, 0,98
9, 0,00, 6136,11, 51582,57, 0,00, 0,00, 0,00, 0,00, 0,00, -0,01, -0,02, 0,98
10, 0,00, 47354,67, 34918,52, 0,00, 0,00, 0,00, 0,00, 0,00, -0,01, -0,02, 0,98
11, 0,00, 42067,61, 38903,41, 0,00, 0,00, 0,00, 0,00, 0,00, -0,01, -0,01, 0,97
12, 0,00, -484,72, 57315,84, 0,00, 0,00, 0,00, 0,00, 0,00, -0,01, -0,01, 0,97
13, 0,00, -24587,95, 65783,15, 0,00, 0,00, 0,00, 0,00, 0,00, -0,01, -0,01, 0,97
14, 0,00, 5678,75, 51683,87, 0,00, 0,00, 0,00, 0,00, 0,00, -0,01, -0,01, 0,97
15, 0,00, 47292,73, 34942,44, 0,00, 0,00, 0,00, 0,00, 0,00, -0,01, -0,01, 0,97
16, 0,00, 42505,73, 38837,70, 0,00, 0,00, 0,00, 0,00, 0,00, -0,01, -0,02, 0,97
17, 0,00, -121,12, 57217,36, 0,00, 0,00, 0,00, 0,00, 0,00, -0,01, -0,02, 0,97
18, 0,00, -24808,07, 65800,38, 0,00, 0,00, 0,00, 0,00, 0,00, -0,01, -0,02, 0,97
19, 0,00, 5229,68, 51834,68, 0,00, 0,00, 0,00, 0,00, 0,00, -0,01, -0,02, 0,97
20, 0,00, 47102,52, 35083,16, 0,00, 0,00, 0,00, 0,00, 0,00, -0,01, -0,02, 0,97
21, 0,00, 42878,98, 38757,97, 0,00, 0,00, 0,00, 0,00, 0,00, -0,01, -0,02, 0,97
22, 0,00, 141,73, 57083,80, 0,00, 0,00, 0,00, 0,00, 0,00, -0,01, -0,02, 0,97
23, 0,00, -25044,30, 65821,93, 0,00, 0,00, 0,00, 0,00, 0,00, -0,01, -0,02, 0,97
24, 0,00, 4945,37, 51932,85, 0,00, 0,00, 0,00, 0,00, 0,00, -0,01, -0,02, 0,97
25, 0,00, 47258,98, 35064,19, 0,00, 0,00, 0,00, 0,00, 0,00, -0,01, -0,02, 0,97
26, 0,00, 43225,12, 38633,47, 0,00, 0,00, 0,00, 0,00, 0,00, -0,01, -0,01, 0,97
27, 0,00, 349,94, 56952,98, 0,00, 0,00, 0,00, 0,00, 0,00, -0,01, -0,01, 0,97
28, 0,00, -25221,01, 65835,48, 0,00, 0,00, 0,00, 0,00, 0,00, -0,01, -0,01, 0,97
29, 0,00, 4580,72, 52052,54, 0,00, 0,00, 0,00, 0,00, 0,00, -0,01, -0,01, 0,97
30, 0,00, 47046,75, 35145,97, 0,00, 0,00, 0,00, 0,00, 0,00, -0,01, -0,01, 0,97
31, 0,00, 43473,65, 38549,98, 0,00, 0,00, 0,00, 0,00, 0,00, -0,01, -0,01, 0,97
32, 0,00, 559,98, 56861,85, 0,00, 0,00, 0,00, 0,00, 0,00, -0,01, -0,01, 0,97
33, 0,00, -25369,10, 65873,45, 0,00, 0,00, 0,00, 0,00, 0,00, -0,01, -0,01, 0,97
34, 0,00, 4325,13, 52172,95, 0,00, 0,00, 0,00, 0,00, 0,00, -0,01, -0,01, 0,97
35, 0,00, 47130,20, 35160,14, 0,00, 0,00, 0,00, 0,00, 0,00, -0,01, -0,01, 0,97
36, 0,00, 43779,31, 38442,68, 0,00, 0,00, 0,00, 0,00, 0,00, -0,01, -0,01, 0,97
37, 0,00, 820,67, 56747,01, 0,00, 0,00, 0,00, 0,00, 0,00, -0,01, -0,01, 0,97
38, 0,00, -25449,61, 65899,78, 0,00, 0,00, 0,00, 0,00, 0,00, -0,01, -0,01, 0,97
39, 0,00, 4103,36, 52279,07, 0,00, 0,00, 0,00, 0,00, 0,00, -0,01, -0,01, 0,97
40, 0,00, 47092,82, 35212,40, 0,00, 0,00, 0,00, 0,00, 0,00, -0,01, -0,01, 0,97
41, 0,00, 44060,36, 38357,34, 0,00, 0,00, 0,00, 0,00, 0,00, -0,01, -0,01, 0,97
42, 0,00, 1032,63, 56649,40, 0,00, 0,00, 0,00, 0,00, 0,00, -0,02, -0,01, 0,97
43, 0,00, -25596,14, 65950,12, 0,00, 0,00, 0,00, 0,00, 0,00, -0,02, -0,01, 0,97
44, 0,00, 3824,43, 52413,86, 0,00, 0,00, 0,00, 0,00, 0,00, -0,02, -0,01, 0,97
45, 0,00, 46939,67, 35296,89, 0,00, 0,00, 0,00, 0,00, 0,00, -0,02, -0,01, 0,97
46, 0,00, 44240,34, 38282,12, 0,00, 0,00, 0,00, 0,00, 0,00, -0,02, -0,01, 0,97
47, 0,00, 1161,06, 56570,99, 0,00, 0,00, 0,00, 0,00, 0,00, -0,01, -0,01, 0,97
48, 0,00, -25773,88, 65990,88, 0,00, 0,00, 0,00, 0,00, 0,00, -0,01, -0,01, 0,97
49, 0,00, 3598,61, 52505,61, 0,00, 0,00, 0,00, 0,00, 0,00, -0,01, -0,01, 0,97
50, 0,00, 47141,75, 35251,18, 0,00, 0,00, 0,00, 0,00, 0,00, -0,01, -0,01, 0,97
51, 0,00, 44522,59, 38168,48, 0,00, 0,00, 0,00, 0,00, 0,00, -0,01, -0,01, 0,97
52, 0,00, 1435,74, 56422,46, 0,00, 0,00, 0,00, 0,00, 0,00, -0,01, -0,01, 0,98
53, 0,00, -25826,34, 65980,02, 0,00, 0,00, 0,00, 0,00, 0,00, -0,01, -0,01, 0,98
54, 0,00, 3273,06, 52616,18, 0,00, 0,00, 0,00, 0,00, 0,00, -0,01, -0,01, 0,98
55, 0,00, 46778,80, 35348,79, 0,00, 0,00, 0,00, 0,00, 0,00, -0,01, -0,01, 0,98
56, 0,00, 44721,79, 38066,70, 0,00, 0,00, 0,00, 0,00, 0,00, -0,01, -0,01, 0,98
57, 0,00, 1344,64, 56464,84, 0,00, 0,00, 0,00, 0,00, 0,00, -0,02, -0,01, 0,97
58, 0,00, -26599,25, 66343,82, 0,00, 0,00, 0,00, 0,00, 0,00, -0,02, -0,01, 0,97
59, 0,00, 2629,77, 52897,05, 0,00, 0,00, 0,00, 0,00, 0,00, -0,02, -0,01, 0,97
60, 0,00, 47004,73, 35217,39, 0,00, 0,00, 0,00, 0,00, 0,00, -0,02, -0,01, 0,97
61, 0,00, 45296,39, 37762,96, 0,00, 0,00, 0,00, 0,00, 0,00, -0,02, -0,01, 0,97
62, 0,00, 1850,37, 56238,35, 0,00, 0,00, 0,00, 0,00, 0,00, -0,02, -0,01, 0,97
63, 0,00, -26491,26, 66316,23, 0,00, 0,00, 0,00, 0,00, 0,00, -0,01, -0,01, 0,97
64, 0,00, 2472,73, 52998,04, 0,00, 0,00, 0,00, 0,00, 0,00, -0,01, -0,01, 0,97
65, 0,00, 46962,96, 35272,46, 0,00, 0,00, 0,00, 0,00, 0,00, -0,01, -0,01, 0,97
66, 0,00, 45561,28, 37674,29, 0,00, 0,00, 0,00, 0,00, 0,00, -0,01, -0,01, 0,97
67, 0,00, 2154,02, 56121,18, 0,00, 0,00, 0,00, 0,00, 0,00, -0,01, -0,01, 0,97
68, 0,00, -26501,68, 66335,08, 0,00, 0,00, 0,00, 0,00, 0,00, -0,01, -0,01, 0,97
69, 0,00, 2219,53, 53121,85, 0,00, 0,00, 0,00, 0,00, 0,00, -0,01, -0,01, 0,97
70, 0,00, 46825,09, 35343,54, 0,00, 0,00, 0,00, 0,00, 0,00, -0,01, -0,01, 0,97
71, 0,00, 45786,05, 37583,14, 0,00, 0,00, 0,00, 0,00, 0,00, -0,01, -0,01, 0,97
72, 0,00, 2426,01, 56002,94, 0,00, 0,00, 0,00, 0,00, 0,00, -0,01, -0,01, 0,97
73, 0,00, -26542,00, 66330,41, 0,00, 0,00, 0,00, 0,00, 0,00, -0,00, -0,01, 0,98
74, 0,00, 1910,67, 53223,05, 0,00, 0,00, 0,00, 0,00, 0,00, -0,00, -0,01, 0,98
75, 0,00, 46530,00, 35416,96, 0,00, 0,00, 0,00, 0,00, 0,00, -0,00, -0,01, 0,98
76, 0,00, 46000,40, 37451,35, 0,00, 0,00, 0,00, 0,00, 0,00, -0,00, -0,01, 0,98
77, 0,00, 2756,10, 55815,52, 0,00, 0,00, 0,00, 0,00, 0,00, -0,00, -0,01, 0,98
78, 0,00, -26542,70, 66299,52, 0,00, 0,00, 0,00, 0,00, 0,00, -0,00, -0,01, 0,97
79, 0,00, 1634,54, 53318,14, 0,00, 0,00, 0,00, 0,00, 0,00, -0,00, -0,01, 0,97
80, 0,00, 46373,86, 35453,02, 0,00, 0,00, 0,00, 0,00, 0,00, -0,00, -0,01, 0,97
81, 0,00, 46250,09, 37323,39, 0,00, 0,00, 0,00, 0,00, 0,00, -0,00, -0,01, 0,97
82, 0,00, 3046,05, 55674,01, 0,00, 0,00, 0,00, 0,00, 0,00, -0,00, -0,01, 0,97
83, 0,00, -26559,15, 66291,47, 0,00, 0,00, 0,00, 0,00, 0,00, 0,00, -0,01, 0,97
84, 0,00, 1394,01, 53403,30, 0,00, 0,00, 0,00, 0,00, 0,00, 0,00, -0,01, 0,97
85, 0,00, 46324,39, 35467,52, 0,00, 0,00, 0,00, 0,00, 0,00, 0,00, -0,01, 0,97
86, 0,00, 46511,18, 37225,82, 0,00, 0,00, 0,00, 0,00, 0,00, 0,00, -0,01, 0,97
87, 0,00, 3337,54, 55562,59, 0,00, 0,00, 0,00, 0,00, 0,00, 0,00, -0,01, 0,97
88, 0,00, -26589,34, 66319,44, 0,00, 0,00, 0,00, 0,00, 0,00, 0,00, -0,01, 0,97
89, 0,00, 1144,16, 53529,03, 0,00, 0,00, 0,00, 0,00, 0,00, 0,00, -0,01, 0,97
90, 0,00, 46168,62, 35540,41, 0,00, 0,00, 0,00, 0,00, 0,00, 0,00, -0,01, 0,97
91, 0,00, 46736,36, 37128,64, 0,00, 0,00, 0,00, 0,00, 0,00, 0,00, -0,01, 0,97
92, 0,00, 3615,60, 55447,21, 0,00, 0,00, 0,00, 0,00, 0,00, 0,00, -0,01, 0,97
93, 0,00, -26604,74, 66345,52, 0,00, 0,00, 0,00, 0,00, 0,00, 0,00, -0,01, 0,97
94, 0,00, 871,67, 53651,89, 0,00, 0,00, 0,00, 0,00, 0,00, -0,00, -0,01, 0,97
95, 0,00, 46036,37, 35588,36, 0,00, 0,00, 0,00, 0,00, 0,00, -0,00, -0,01, 0,97
96, 0,00, 46936,56, 37034,65, 0,00, 0,00, 0,00, 0,00, 0,00, -0,00, -0,01, 0,97
97, 0,00, 3910,12, 55326,15, 0,00, 0,00, 0,00, 0,00, 0,00, -0,00, -0,01, 0,97
98, 0,00, -26659,28, 66363,02, 0,00, 0,00, 0,00, 0,00, 0,00, -0,00, -0,01, 0,97
99, 0,00, 624,46, 53757,11, 0,00, 0,00, 0,00, 0,00, 0,00, -0,00, -0,01, 0,98
100, 0,00, 45959,16, 35626,98, 0,00, 0,00, 0,00, 0,00, 0,00, -0,00, -0,01, 0,98
101, 0,00, 47194,43, 36931,25, 0,00, 0,00, 0,00, 0,00, 0,00, -0,00, -0,01, 0,98
102, 0,00, 4208,27, 55201,54, 0,00, 0,00, 0,00, 0,00, 0,00, -0,00, -0,01, 0,98
103, 0,00, -26637,49, 66349,77, 0,00, 0,00, 0,00, 0,00, 0,00, -0,00, -0,01, 0,98
104, 0,00, 401,75, 53824,21, 0,00, 0,00, 0,00, 0,00, 0,00, -0,01, -0,01, 0,98
105, 0,00, 45806,90, 35634,47, 0,00, 0,00, 0,00, 0,00, 0,00, -0,01, -0,01, 0,98
106, 0,00, 47445,33, 36789,43, 0,00, 0,00, 0,00, 0,00, 0,00, -0,01, -0,01, 0,98
107, 0,00, 4508,41, 55056,39, 0,00, 0,00, 0,00, 0,00, 0,00, -0,01, -0,01, 0,98
108, 0,00, -26651,26, 66355,13, 0,00, 0,00, 0,00, 0,00, 0,00, -0,01, -0,01, 0,98
109, 0,00, 70,39, 53946,05, 0,00, 0,00, 0,00, 0,00, 0,00, -0,01, -0,01, 0,97
110, 0,00, 45540,11, 35711,22, 0,00, 0,00, 0,00, 0,00, 0,00, -0,01, -0,01, 0,97
111, 0,00, 47583,98, 36730,51, 0,00, 0,00, 0,00, 0,00, 0,00, -0,01, -0,01, 0,97
112, 0,00, 4751,40, 54994,12, 0,00, 0,00, 0,00, 0,00, 0,00, -0,01, -0,01, 0,97
113, 0,00, -26708,90, 66441,14, 0,00, 0,00, 0,00, 0,00, 0,00, -0,01, -0,01, 0,97
114, 0,00, -220,86, 54120,28, 0,00, 0,00, 0,00, 0,00, 0,00, -0,01, -0,01, 0,98
115, 0,00, 45265,66, 35849,25, 0,00, 0,00, 0,00, 0,00, 0,00, -0,01, -0,01, 0,98
116, 0,00, 47689,75, 36707,44, 0,00, 0,00, 0,00, 0,00, 0,00, -0,01, -0,01, 0,98
117, 0,00, 4984,89, 54929,81, 0,00, 0,00, 0,00, 0,00, 0,00, -0,01, -0,01, 0,98
118, 0,00, -26784,14, 66506,79, 0,00, 0,00, 0,00, 0,00, 0,00, -0,01, -0,01, 0,98
119, 0,00, -594,13, 54291,09, 0,00, 0,00, 0,00, 0,00, 0,00, -0,01, -0,01, 0,98
120, 0,00, 45002,96, 35953,74, 0,00, 0,00, 0,00, 0,00, 0,00, -0,01, -0,01, 0,98
121, 0,00, 47814,36, 36677,07, 0,00, 0,00, 0,00, 0,00, 0,00, -0,01, -0,01, 0,98
122, 0,00, 5201,94, 54868,75, 0,00, 0,00, 0,00, 0,00, 0,00, -0,01, -0,01, 0,98
123, 0,00, -26883,49, 66578,34, 0,00, 0,00, 0,00, 0,00, 0,00, -0,01, -0,01, 0,98
124, 0,00, -970,38, 54461,68, 0,00, 0,00, 0,00, 0,00, 0,00, -0,01, -0,01, 0,98
125, 0,00, 44745,02, 36055,66, 0,00, 0,00, 0,00, 0,00, 0,00, -0,02, -0,01, 0,98
126, 0,00, 47969,70, 36600,18, 0,00, 0,00, 0,00, 0,00, 0,00, -0,02, -0,01, 0,98
127, 0,00, 5488,00, 54750,28, 0,00, 0,00, 0,00, 0,00, 0,00, -0,02, -0,01, 0,98
128, 0,00, -26884,48, 66606,03, 0,00, 0,00, 0,00, 0,00, 0,00, -0,02, -0,01, 0,98
129, 0,00, -1252,90, 54590,31, 0,00, 0,00, 0,00, 0,00, 0,00, -0,02, -0,01, 0,98
130, 0,00, 44493,49, 36126,05, 0,00, 0,00, 0,00, 0,00, 0,00, -0,01, -0,02, 0,97
131, 0,00, 48098,11, 36504,27, 0,00, 0,00, 0,00, 0,00, 0,00, -0,01, -0,02, 0,97
132, 0,00, 5753,58, 54639,39, 0,00, 0,00, 0,00, 0,00, 0,00, -0,01, -0,02, 0,97
133, 0,00, -26844,71, 66610,56, 0,00, 0,00, 0,00, 0,00, 0,00, -0,01, -0,02, 0,97
134, 0,00, -1525,04, 54703,46, 0,00, 0,00, 0,00, 0,00, 0,00, -0,01, -0,02, 0,97
135, 0,00, 44250,53, 36204,39, 0,00, 0,00, 0,00, 0,00, 0,00, -0,02, -0,01, 0,97
136, 0,00, 48316,63, 36426,03, 0,00, 0,00, 0,00, 0,00, 0,00, -0,02, -0,01, 0,97
137, 0,00, 6063,65, 54534,59, 0,00, 0,00, 0,00, 0,00, 0,00, -0,02, -0,01, 0,97
138, 0,00, -26785,97, 66605,36, 0,00, 0,00, 0,00, 0,00, 0,00, -0,02, -0,01, 0,97
139, 0,00, -1745,74, 54794,03, 0,00, 0,00, 0,00, 0,00, 0,00, -0,02, -0,01, 0,97
140, 0,00, 44018,99, 36270,62, 0,00, 0,00, 0,00, 0,00, 0,00, -0,01, -0,01, 0,98
141, 0,00, 48477,07, 36342,32, 0,00, 0,00, 0,00, 0,00, 0,00, -0,01, -0,01, 0,98
142, 0,00, 6360,08, 54420,77, 0,00, 0,00, 0,00, 0,00, 0,00, -0,01, -0,01, 0,98
143, 0,00, -26795,40, 66639,89, 0,00, 0,00, 0,00, 0,00, 0,00, -0,01, -0,01, 0,98
144, 0,00, -1965,63, 54902,61, 0,00, 0,00, 0,00, 0,00, 0,00, -0,01, -0,01, 0,98
145, 0,00, 44104,86, 36247,00, 0,00, 0,00, 0,00, 0,00, 0,00, -0,01, -0,01, 0,97
146, 0,00, 48677,76, 36263,76, 0,00, 0,00, 0,00, 0,00, 0,00, -0,01, -0,01, 0,97
147, 0,00, 6627,00, 54327,61, 0,00, 0,00, 0,00, 0,00, 0,00, -0,01, -0,01, 0,97
148, 0,00, -26779,51, 66661,75, 0,00, 0,00, 0,00, 0,00, 0,00, -0,01, -0,01, 0,97
149, 0,00, -2363,88, 55059,61, 0,00, 0,00, 0,00, 0,00, 0,00, -0,01, -0,01, 0,97
150, 0,00, 43541,71, 36420,67, 0,00, 0,00, 0,00, 0,00, 0,00, -0,01, -0,00, 0,97
151, 0,00, 48773,54, 36193,60, 0,00, 0,00, 0,00, 0,00, 0,00, -0,01, -0,00, 0,97
152, 0,00, 6828,35, 54241,38, 0,00, 0,00, 0,00, 0,00, 0,00, -0,01, -0,00, 0,97
153, 0,00, -26866,88, 66707,75, 0,00, 0,00, 0,00, 0,00, 0,00, -0,01, -0,00, 0,97
154, 0,00, -2546,80, 55145,80, 0,00, 0,00, 0,00, 0,00, 0,00, -0,01, -0,00, 0,97
155, 0,00, 43703,71, 36379,68, 0,00, 0,00, 0,00, 0,00, 0,00, -0,01, -0,00, 0,97
156, 0,00, 48992,43, 36119,50, 0,00, 0,00, 0,00, 0,00, 0,00, -0,01, -0,01, 0,97
157, 0,00, 7181,84, 54113,77, 0,00, 0,00, 0,00, 0,00, 0,00, -0,01, -0,01, 0,97
158, 0,00, -26765,12, 66709,12, 0,00, 0,00, 0,00, 0,00, 0,00, -0,01, -0,01, 0,97
159, 0,00, -2868,58, 55303,13, 0,00, 0,00, 0,00, 0,00, 0,00, -0,01, -0,01, 0,97
160, 0,00, 43382,79, 36504,06, 0,00, 0,00, 0,00, 0,00, 0,00, -0,01, -0,01, 0,97
161, 0,00, 49106,22, 36083,54, 0,00, 0,00, 0,00, 0,00, 0,00, -0,01, -0,01, 0,97
162, 0,00, 7353,63, 54077,27, 0,00, 0,00, 0,00, 0,00, 0,00, -0,01, -0,01, 0,97
163, 0,00, -26864,87, 66806,81, 0,00, 0,00, 0,00, 0,00, 0,00, -0,01, -0,01, 0,97
164, 0,00, -3237,23, 55507,18, 0,00, 0,00, 0,00, 0,00, 0,00, -0,01, -0,01, 0,97
165, 0,00, 42912,24, 36692,69, 0,00, 0,00, 0,00, 0,00, 0,00, -0,01, -0,01, 0,97
166, 0,00, 49191,18, 36047,98, 0,00, 0,00, 0,00, 0,00, 0,00, -0,01, -0,01, 0,97
167, 0,00, 7685,18, 53990,14, 0,00, 0,00, 0,00, 0,00, 0,00, -0,01, -0,01, 0,97
168, 0,00, -26831,05, 66845,37, 0,00, 0,00, 0,00, 0,00, 0,00, -0,01, -0,01, 0,97
169, 0,00, -3473,59, 55620,82, 0,00, 0,00, 0,00, 0,00, 0,00, -0,01, -0,01, 0,97
170, 0,00, 43100,69, 36668,50, 0,00, 0,00, 0,00, 0,00, 0,00, -0,01, -0,01, 0,97
171, 0,00, 49385,69, 36017,22, 0,00, 0,00, 0,00, 0,00, 0,00, -0,01, -0,01, 0,98
172, 0,00, 7924,14, 53913,16, 0,00, 0,00, 0,00, 0,00, 0,00, -0,01, -0,01, 0,98
173, 0,00, -26837,65, 66866,13, 0,00, 0,00, 0,00, 0,00, 0,00, -0,01, -0,01, 0,98
174, 0,00, -3870,94, 55768,70, 0,00, 0,00, 0,00, 0,00, 0,00, -0,01, -0,01, 0,98
175, 0,00, 42397,44, 36846,09, 0,00, 0,00, 0,00, 0,00, 0,00, -0,01, -0,01, 0,98
176, 0,00, 49428,89, 35915,96, 0,00, 0,00, 0,00, 0,00, 0,00, -0,01, -0,01, 0,98
177, 0,00, 8138,58, 53794,52, 0,00, 0,00, 0,00, 0,00, 0,00, -0,01, -0,01, 0,98
178, 0,00, -26848,96, 66849,70, 0,00, 0,00, 0,00, 0,00, 0,00, -0,01, -0,01, 0,98
179, 0,00, -4055,52, 55804,88, 0,00, 0,00, 0,00, 0,00, 0,00, -0,01, -0,01, 0,98
180, 0,00, 42443,12, 36783,35, 0,00, 0,00, 0,00, 0,00, 0,00, -0,01, -0,01, 0,98
181, 0,00, 49696,38, 35752,98, 0,00, 0,00, 0,00, 0,00, 0,00, -0,01, -0,01, 0,98
182, 0,00, 8546,95, 53596,08, 0,00, 0,00, 0,00, 0,00, 0,00, -0,01, -0,01, 0,98
183, 0,00, -26639,63, 66759,61, 0,00, 0,00, 0,00, 0,00, 0,00, -0,01, -0,01, 0,98
184, 0,00, -4297,75, 55872,81, 0,00, 0,00, 0,00, 0,00, 0,00, -0,01, -0,01, 0,98
185, 0,00, 41957,00, 36906,19, 0,00, 0,00, 0,00, 0,00, 0,00, -0,01, -0,01, 0,98
186, 0,00, 49825,10, 35656,04, 0,00, 0,00, 0,00, 0,00, 0,00, -0,01, -0,01, 0,98
187, 0,00, 8860,46, 53465,95, 0,00, 0,00, 0,00, 0,00, 0,00, -0,01, -0,01, 0,98
188, 0,00, -26628,57, 66774,83, 0,00, 0,00, 0,00, 0,00, 0,00, -0,01, -0,01, 0,98
189, 0,00, -4536,91, 55980,12, 0,00, 0,00, 0,00, 0,00, 0,00, -0,01, -0,01, 0,98
190, 0,00, 41858,29, 36945,40, 0,00, 0,00, 0,00, 0,00, 0,00, -0,01, -0,01, 0,98
191, 0,00, 50028,05, 35572,11, 0,00, 0,00, 0,00, 0,00, 0,00, -0,01, -0,01, 0,98
192, 0,00, 9238,51, 53320,02, 0,00, 0,00, 0,00, 0,00, 0,00, -0,01, -0,00, 0,97
193, 0,00, -26478,88, 66742,20, 0,00, 0,00, 0,00, 0,00, 0,00, -0,01, -0,00, 0,97
194, 0,00, -4820,44, 56097,13, 0,00, 0,00, 0,00, 0,00, 0,00, -0,01, -0,00, 0,97
195, 0,00, 41482,63, 37053,43, 0,00, 0,00, 0,00, 0,00, 0,00, -0,01, -0,00, 0,97
196, 0,00, 50130,89, 35492,54, 0,00, 0,00, 0,00, 0,00, 0,00, -0,01, -0,00, 0,97
197, 0,00, 9472,78, 53212,86, 0,00, 0,00, 0,00, 0,00, 0,00, -0,01, -0,00, 0,97
198, 0,00, -26450,32, 66738,71, 0,00, 0,00, 0,00, 0,00, 0,00, -0,01, -0,00, 0,97
199, 0,00, -5030,75, 56181,53, 0,00, 0,00, 0,00, 0,00, 0,00, -0,01, -0,00, 0,97
200, 0,00, 41366,66, 37084,02, 0,00, 0,00, 0,00, 0,00, 0,00, -0,01, -0,00, 0,97
201, 0,00, 50301,79, 35404,00, 0,00, 0,00, 0,00, 0,00, 0,00, -0,01, -0,00, 0,97
202, 0,00, 9828,75, 53052,49, 0,00, 0,00, 0,00, 0,00, 0,00, -0,01, -0,00, 0,97
203, 0,00, -26364,33, 66700,09, 0,00, 0,00, 0,00, 0,00, 0,00, -0,01, -0,00, 0,97
204, 0,00, -5299,08, 56282,74, 0,00, 0,00, 0,00, 0,00, 0,00, -0,01, -0,00, 0,97
205, 0,00, 41085,81, 37175,00, 0,00, 0,00, 0,00, 0,00, 0,00, -0,01, -0,00, 0,97
206, 0,00, 50476,92, 35327,64, 0,00, 0,00, 0,00, 0,00, 0,00, -0,01, -0,00, 0,97
207, 0,00, 10144,74, 52932,89, 0,00, 0,00, 0,00, 0,00, 0,00, -0,01, -0,01, 0,97
208, 0,00, -26236,01, 66678,23, 0,00, 0,00, 0,00, 0,00, 0,00, -0,01, -0,01, 0,97
209, 0,00, -5538,58, 56398,32, 0,00, 0,00, 0,00, 0,00, 0,00, -0,01, -0,01, 0,97
210, 0,00, 40870,34, 37253,00, 0,00, 0,00, 0,00, 0,00, 0,00, -0,01, -0,01, 0,97
211, 0,00, 50587,20, 35254,94, 0,00, 0,00, 0,00, 0,00, 0,00, -0,01, -0,01, 0,97
212, 0,00, 10421,59, 52812,21, 0,00, 0,00, 0,00, 0,00, 0,00, -0,01, -0,01, 0,97
213, 0,00, -26168,26, 66655,11, 0,00, 0,00, 0,00, 0,00, 0,00, -0,01, -0,01, 0,97
214, 0,00, -5759,28, 56494,12, 0,00, 0,00, 0,00, 0,00, 0,00, -0,01, -0,01, 0,97
215, 0,00, 40761,27, 37299,92, 0,00, 0,00, 0,00, 0,00, 0,00, -0,01, -0,01, 0,97
216, 0,00, 50807,52, 35171,99, 0,00, 0,00, 0,00, 0,00, 0,00, -0,01, -0,01, 0,97
217, 0,00, 10736,64, 52669,78, 0,00, 0,00, 0,00, 0,00, 0,00, -0,01, -0,01, 0,97
218, 0,00, -26138,67, 66631,82, 0,00, 0,00, 0,00, 0,00, 0,00, -0,01, -0,02, 0,97
219, 0,00, -6049,19, 56597,72, 0,00, 0,00, 0,00, 0,00, 0,00, -0,01, -0,02, 0,97
220, 0,00, 40504,36, 37382,82, 0,00, 0,00, 0,00, 0,00, 0,00, -0,01, -0,02, 0,97
221, 0,00, 50930,08, 35094,36, 0,00, 0,00, 0,00, 0,00, 0,00, -0,01, -0,02, 0,97
222, 0,00, 11032,46, 52544,28, 0,00, 0,00, 0,00, 0,00, 0,00, -0,01, -0,02, 0,97
223, 0,00, -26039,94, 66611,46, 0,00, 0,00, 0,00, 0,00, 0,00, -0,01, -0,02, 0,97
224, 0,00, -6313,74, 56717,93, 0,00, 0,00, 0,00, 0,00, 0,00, -0,01, -0,02, 0,97
225, 0,00, 40229,23, 37474,69, 0,00, 0,00, 0,00, 0,00, 0,00, -0,01, -0,02, 0,97
226, 0,00, 51056,55, 35015,88, 0,00, 0,00, 0,00, 0,00, 0,00, -0,01, -0,02, 0,97
227, 0,00, 11343,31, 52422,98, 0,00, 0,00, 0,00, 0,00, 0,00, -0,01, -0,02, 0,97
228, 0,00, -25937,95, 66593,02, 0,00, 0,00, 0,00, 0,00, 0,00, -0,01, -0,01, 0,97
229, 0,00, -6433,57, 56767,30, 0,00, 0,00, 0,00, 0,00, 0,00, -0,01, -0,01, 0,97
230, 0,00, 40147,66, 37470,71, 0,00, 0,00, 0,00, 0,00, 0,00, -0,01, -0,01, 0,97
231, 0,00, 51425,13, 34834,99, 0,00, 0,00, 0,00, 0,00, 0,00, -0,01, -0,01, 0,97
232, 0,00, 11968,46, 52126,41, 0,00, 0,00, 0,00, 0,00, 0,00, -0,01, -0,01, 0,97
233, 0,00, -25419,72, 66349,16, 0,00, 0,00, 0,00, 0,00, 0,00, -0,01, -0,01, 0,97
234, 0,00, -6334,35, 56682,26, 0,00, 0,00, 0,00, 0,00, 0,00, -0,01, -0,01, 0,97
235, 0,00, 40004,57, 37485,10, 0,00, 0,00, 0,00, 0,00, 0,00, -0,01, -0,01, 0,97
236, 0,00, 51564,76, 34744,33, 0,00, 0,00, 0,00, 0,00, 0,00, -0,01, -0,01, 0,97
237, 0,00, 12296,63, 52001,93, 0,00, 0,00, 0,00, 0,00, 0,00, -0,01, -0,01, 0,97
238, 0,00, -25290,66, 66322,38, 0,00, 0,00, 0,00, 0,00, 0,00, -0,01, -0,01, 0,97
239, 0,00, -6607,87, 56810,67, 0,00, 0,00, 0,00, 0,00, 0,00, -0,01, -0,01, 0,97
240, 0,00, 39585,56, 37637,83, 0,00, 0,00, 0,00, 0,00, 0,00, -0,01, -0,01, 0,97
241, 0,00, 51516,16, 34756,76, 0,00, 0,00, 0,00, 0,00, 0,00, -0,01, -0,01, 0,97
242, 0,00, 12498,22, 51929,34, 0,00, 0,00, 0,00, 0,00, 0,00, -0,01, -0,01, 0,97
243, 0,00, -25266,23, 66347,20, 0,00, 0,00, 0,00, 0,00, 0,00, -0,01, -0,01, 0,97
244, 0,00, -6942,79, 56972,00, 0,00, 0,00, 0,00, 0,00, 0,00, -0,01, -0,01, 0,97
245, 0,00, 39182,34, 37803,01, 0,00, 0,00, 0,00, 0,00, 0,00, -0,01, -0,01, 0,97
246, 0,00, 51525,26, 34756,94, 0,00, 0,00, 0,00, 0,00, 0,00, -0,01, -0,01, 0,97
247, 0,00, 12678,29, 51869,99, 0,00, 0,00, 0,00, 0,00, 0,00, -0,01, -0,01, 0,97
248, 0,00, -25244,04, 66363,98, 0,00, 0,00, 0,00, 0,00, 0,00, -0,01, -0,01, 0,97
249, 0,00, -7236,76, 57111,75, 0,00, 0,00, 0,00, 0,00, 0,00, -0,01, -0,01, 0,98
250, 0,00, 38926,39, 37905,34, 0,00, 0,00, 0,00, 0,00, 0,00, -0,01, -0,01, 0,98
251, 0,00, 51571,38, 34718,36, 0,00, 0,00, 0,00, 0,00, 0,00, -0,01, -0,01, 0,98
252, 0,00, 12890,38, 51773,52, 0,00, 0,00, 0,00, 0,00, 0,00, -0,01, -0,01, 0,98
253, 0,00, -25220,86, 66383,67, 0,00, 0,00, 0,00, 0,00, 0,00, -0,01, -0,01, 0,98
254, 0,00, -7518,81, 57262,39, 0,00, 0,00, 0,00, 0,00, 0,00, -0,01, -0,01, 0,97
255, 0,00, 38664,11, 38015,15, 0,00, 0,00, 0,00, 0,00, 0,00, -0,01, -0,01, 0,97
0, 0,00, 51659,66, 34675,07, 0,00, 0,00, 0,00, 0,00, 0,00, -0,01, -0,01, 0,97
1, 0,00, 13077,29, 51690,89, 0,00, 0,00, 0,00, 0,00, 0,00, -0,01, -0,01, 0,97
2, 0,00, -25274,19, 66419,37, 0,00, 0,00, 0,00, 0,00, 0,00, -0,01, -0,01, 0,97
3, 0,00, -7857,62, 57421,83, 0,00, 0,00, 0,00, 0,00, 0,00, -0,01, -0,01, 0,97
4, 0,00, 38420,28, 38117,81, 0,00, 0,00, 0,00, 0,00, 0,00, -0,01, -0,01, 0,97
5, 0,00, 51796,55, 34597,39, 0,00, 0,00, 0,00, 0,00, 0,00, -0,01, -0,01, 0,97
6, 0,00, 13362,32, 51578,10, 0,00, 0,00, 0,00, 0,00, 0,00, -0,01, -0,01, 0,97
7, 0,00, -25176,91, 66417,34, 0,00, 0,00, 0,00, 0,00, 0,00, -0,01, -0,01, 0,97
8, 0,00, -8007,67, 57497,94, 0,00, 0,00, 0,00, 0,00, 0,00, -0,01, -0,01, 0,98
9, 0,00, 38444,02, 38107,51, 0,00, 0,00, 0,00, 0,00, 0,00, -0,01, -0,01, 0,98
10, 0,00, 51924,42, 34519,47, 0,00, 0,00, 0,00, 0,00, 0,00, -0,01, -0,01, 0,98
11, 0,00, 13599,81, 51460,64, 0,00, 0,00, 0,00, 0,00, 0,00, -0,01, -0,01, 0,98
12, 0,00, -25048,01, 66392,77, 0,00, 0,00, 0,00, 0,00, 0,00, -0,01, -0,01, 0,98
13, 0,00, -8229,49, 57615,87, 0,00, 0,00, 0,00, 0,00, 0,00, -0,02, -0,01, 0,98
14, 0,00, 37915,82, 38285,25, 0,00, 0,00, 0,00, 0,00, 0,00, -0,02, -0,01, 0,98
15, 0,00, 51824,69, 34494,13, 0,00, 0,00, 0,00, 0,00, 0,00, -0,02, -0,01, 0,98
16, 0,00, 13643,53, 51377,27, 0,00, 0,00, 0,00, 0,00, 0,00, -0,02, -0,01, 0,98
17, 0,00, -25110,33, 66406,94, 0,00, 0,00, 0,00, 0,00, 0,00, -0,02, -0,01, 0,98
18, 0,00, -8302,49, 57710,84, 0,00, 0,00, 0,00, 0,00, 0,00, -0,02, -0,00, 0,96
19, 0,00, 38121,08, 38263,57, 0,00, 0,00, 0,00, 0,00, 0,00, -0,02, -0,00, 0,96
20, 0,00, 51946,75, 34420,41, 0,00, 0,00, 0,00, 0,00, 0,00, -0,02, -0,00, 0,96
21, 0,00, 13881,06, 51240,57, 0,00, 0,00, 0,00, 0,00, 0,00, -0,02, -0,00, 0,96
22, 0,00, -24909,07, 66334,14, 0,00, 0,00, 0,00, 0,00, 0,00, -0,02, -0,00, 0,96
23, 0,00, -8569,61, 57805,48, 0,00, 0,00, 0,00, 0,00, 0,00, -0,02, -0,00, 0,96
24, 0,00, 37807,95, 38362,95, 0,00, 0,00, 0,00, 0,00, 0,00, -0,02, -0,01, 0,97
25, 0,00, 52042,04, 34370,61, 0,00, 0,00, 0,00, 0,00, 0,00, -0,02, -0,01, 0,97
26, 0,00, 14029,36, 51149,02, 0,00, 0,00, 0,00, 0,00, 0,00, -0,02, -0,01, 0,97
27, 0,00, -24995,02, 66335,48, 0,00, 0,00, 0,00, 0,00, 0,00, -0,02, -0,01, 0,97
28, 0,00, -8879,07, 57934,33, 0,00, 0,00, 0,00, 0,00, 0,00, -0,02, -0,01, 0,97
29, 0,00, 37314,40, 38526,89, 0,00, 0,00, 0,00, 0,00, 0,00, -0,01, -0,00, 0,95
30, 0,00, 52109,54, 34300,00, 0,00, 0,00, 0,00, 0,00, 0,00, -0,01, -0,00, 0,95
31, 0,00, 14409,70, 51025,19, 0,00, 0,00, 0,00, 0,00, 0,00, -0,01, -0,00, 0,95
32, 0,00, -24846,51, 66332,11, 0,00, 0,00, 0,00, 0,00, 0,00, -0,01, -0,00, 0,95
33, 0,00, -9182,79, 58076,27, 0,00, 0,00, 0,00, 0,00, 0,00, -0,01, -0,00, 0,95
34, 0,00, 37084,29, 38635,68, 0,00, 0,00, 0,00, 0,00, 0,00, -0,01, -0,01, 0,98
35, 0,00, 52186,36, 34257,58, 0,00, 0,00, 0,00, 0,00, 0,00, -0,01, -0,01, 0,98
36, 0,00, 14768,38, 50879,99, 0,00, 0,00, 0,00, 0,00, 0,00, -0,01, -0,01, 0,98
37, 0,00, -24567,29, 66298,65, 0,00, 0,00, 0,00, 0,00, 0,00, -0,01, -0,01, 0,98
38, 0,00, -9190,19, 58197,48, 0,00, 0,00, 0,00, 0,00, 0,00, -0,01, -0,01, 0,98
39, 0,00, 37000,88, 38779,45, 0,00, 0,00, 0,00, 0,00, 0,00, -0,01, -0,01, 0,96
40, 0,00, 52417,10, 34255,86, 0,00, 0,00, 0,00, 0,00, 0,00, -0,01, -0,01, 0,96
41, 0,00, 15078,44, 50783,36, 0,00, 0,00, 0,00, 0,00, 0,00, -0,01, -0,01, 0,96
42, 0,00, -24393,02, 66241,12, 0,00, 0,00, 0,00, 0,00, 0,00, -0,01, -0,01, 0,96
43, 0,00, -9360,87, 58283,16, 0,00, 0,00, 0,00, 0,00, 0,00, -0,01, -0,01, 0,96
44, 0,00, 36819,22, 38872,83, 0,00, 0,00, 0,00, 0,00, 0,00, -0,01, -0,01, 0,98
45, 0,00, 52576,80, 34203,44, 0,00, 0,00, 0,00, 0,00, 0,00, -0,01, -0,01, 0,98
46, 0,00, 15418,93, 50657,23, 0,00, 0,00, 0,00, 0,00, 0,00, -0,01, -0,01, 0,98
47, 0,00, -24338,34, 66203,54, 0,00, 0,00, 0,00, 0,00, 0,00, -0,01, -0,01, 0,98
48, 0,00, -9666,95, 58387,36, 0,00, 0,00, 0,00, 0,00, 0,00, -0,01, -0,01, 0,98
49, 0,00, 36431,49, 39000,73, 0,00, 0,00, 0,00, 0,00, 0,00, -0,01, -0,01, 0,97
50, 0,00, 52586,86, 34180,46, 0,00, 0,00, 0,00, 0,00, 0,00, -0,01, -0,01, 0,97
51, 0,00, 15670,49, 50546,48, 0,00, 0,00, 0,00, 0,00, 0,00, -0,01, -0,01, 0,97
52, 0,00, -24216,39, 66166,70, 0,00, 0,00, 0,00, 0,00, 0,00, -0,01, -0,01, 0,97
53, 0,00, -9889,66, 58486,15, 0,00, 0,00, 0,00, 0,00, 0,00, -0,01, -0,01, 0,97
54, 0,00, 36099,88, 39109,09, 0,00, 0,00, 0,00, 0,00, 0,00, -0,01, -0,01, 0,97
55, 0,00, 52644,55, 34126,20, 0,00, 0,00, 0,00, 0,00, 0,00, -0,01, -0,01, 0,97
56, 0,00, 15883,39, 50430,83, 0,00, 0,00, 0,00, 0,00, 0,00, -0,01, -0,01, 0,97
57, 0,00, -24229,02, 66168,74, 0,00, 0,00, 0,00, 0,00, 0,00, -0,01, -0,01, 0,97
58, 0,00, -10149,01, 58608,04, 0,00, 0,00, 0,00, 0,00, 0,00, -0,01, -0,01, 0,97
59, 0,00, 35770,43, 39264,32, 0,00, 0,00, 0,00, 0,00, 0,00, -0,01, -0,01, 0,97
60, 0,00, 52602,91, 34169,56, 0,00, 0,00, 0,00, 0,00, 0,00, -0,01, -0,01, 0,98
61, 0,00, 16339,93, 50238,20, 0,00, 0,00, 0,00, 0,00, 0,00, -0,01, -0,01, 0,98
62, 0,00, -23691,82, 65909,01, 0,00, 0,00, 0,00, 0,00, 0,00, -0,01, -0,01, 0,98
63, 0,00, -10235,58, 58639,13, 0,00, 0,00, 0,00, 0,00, 0,00, -0,01, -0,01, 0,98
64, 0,00, 35501,05, 39425,52, 0,00, 0,00, 0,00, 0,00, 0,00, -0,01, -0,01, 0,98
65, 0,00, 52698,32, 34165,51, 0,00, 0,00, 0,00, 0,00, 0,00, -0,01, -0,01, 0,97
66, 0,00, 16550,73, 50136,44, 0,00, 0,00, 0,00, 0,00, 0,00, -0,01, -0,01, 0,97
67, 0,00, -23683,17, 65877,48, 0,00, 0,00, 0,00, 0,00, 0,00, -0,01, -0,01, 0,97
68, 0,00, -10548,97, 58749,97, 0,00, 0,00, 0,00, 0,00, 0,00, -0,01, -0,01, 0,97
69, 0,00, 35291,79, 39505,90, 0,00, 0,00, 0,00, 0,00, 0,00, -0,01, -0,01, 0,97
70, 0,00, 52849,49, 34095,53, 0,00, 0,00, 0,00, 0,00, 0,00, -0,01, -0,01, 0,98
71, 0,00, 16873,71, 49986,43, 0,00, 0,00, 0,00, 0,00, 0,00, -0,01, -0,01, 0,98
72, 0,00, -23550,47, 65806,69, 0,00, 0,00, 0,00, 0,00, 0,00, -0,01, -0,01, 0,98
73, 0,00, -10796,81, 58835,55, 0,00, 0,00, 0,00, 0,00, 0,00, -0,01, -0,01, 0,98
74, 0,00, 34935,86, 39611,11, 0,00, 0,00, 0,00, 0,00, 0,00, -0,01, -0,01, 0,98
75, 0,00, 52885,23, 34032,47, 0,00, 0,00, 0,00, 0,00, 0,00, -0,01, -0,01, 0,97
76, 0,00, 17170,07, 49849,86, 0,00, 0,00, 0,00, 0,00, 0,00, -0,01, -0,01, 0,97
77, 0,00, -23398,39, 65759,41, 0,00, 0,00, 0,00, 0,00, 0,00, -0,01, -0,01, 0,97
78, 0,00, -11028,06, 58941,01, 0,00, 0,00, 0,00, 0,00, 0,00, -0,01, -0,01, 0,97
79, 0,00, 34639,66, 39743,28, 0,00, 0,00, 0,00, 0,00, 0,00, -0,01, -0,01, 0,97
80, 0,00, 52946,05, 34005,21, 0,00, 0,00, 0,00, 0,00, 0,00, -0,01, -0,01, 0,97
81, 0,00, 17481,28, 49721,90, 0,00, 0,00, 0,00, 0,00, 0,00, -0,01, -0,01, 0,97
82, 0,00, -23213,11, 65702,23, 0,00, 0,00, 0,00, 0,00, 0,00, -0,01, -0,01, 0,97
83, 0,00, -11210,56, 59040,99, 0,00, 0,00, 0,00, 0,00, 0,00, -0,01, -0,01, 0,97
84, 0,00, 34395,38, 39852,33, 0,00, 0,00, 0,00, 0,00, 0,00, -0,01, -0,01, 0,97
85, 0,00, 53101,86, 33929,61, 0,00, 0,00, 0,00, 0,00, 0,00, -0,01, -0,00, 0,97
86, 0,00, 17859,49, 49544,00, 0,00, 0,00, 0,00, 0,00, 0,00, -0,01, -0,00, 0,97
87, 0,00, -22996,35, 65597,05, 0,00, 0,00, 0,00, 0,00, 0,00, -0,01, -0,00, 0,97
88, 0,00, -11393,85, 59090,88, 0,00, 0,00, 0,00, 0,00, 0,00, -0,01, -0,00, 0,97
89, 0,00, 34069,22, 39939,08, 0,00, 0,00, 0,00, 0,00, 0,00, -0,01, -0,00, 0,97
90, 0,00, 53195,45, 33856,43, 0,00, 0,00, 0,00, 0,00, 0,00, -0,01, -0,00, 0,97
91, 0,00, 18239,22, 49374,00, 0,00, 0,00, 0,00, 0,00, 0,00, -0,01, -0,01, 0,97
92, 0,00, -22784,52, 65502,66, 0,00, 0,00, 0,00, 0,00, 0,00, -0,01, -0,01, 0,97
93, 0,00, -11593,45, 59160,62, 0,00, 0,00, 0,00, 0,00, 0,00, -0,01, -0,01, 0,97
94, 0,00, 33885,45, 40017,36, 0,00, 0,00, 0,00, 0,00, 0,00, -0,01, -0,01, 0,97
95, 0,00, 53324,38, 33806,32, 0,00, 0,00, 0,00, 0,00, 0,00, -0,01, -0,01, 0,97
96, 0,00, 18528,32, 49242,41, 0,00, 0,00, 0,00, 0,00, 0,00, -0,06, -0,03, 0,94
97, 0,00, -22651,17, 65455,27, 0,00, 0,00, 0,00, 0,00, 0,00, -0,06, -0,03, 0,94
98, 0,00, -11812,43, 59257,89, 0,00, 0,00, 0,00, 0,00, 0,00, -0,06, -0,03, 0,94
99, 0,00, 33585,57, 40110,50, 0,00, 0,00, 0,00, 0,00, 0,00, -0,06, -0,03, 0,94
100, 0,00, 53400,84, 33738,57, 0,00, 0,00, 0,00, 0,00, 0,00, -0,06, -0,03, 0,94
101, 0,00, 18844,42, 49102,87, 0,00, 0,00, 0,00, 0,00, 0,00, -0,03, -0,01, 0,96
102, 0,00, -22482,57, 65405,27, 0,00, 0,00, 0,00, 0,00, 0,00, -0,03, -0,01, 0,96
103, 0,00, -12018,13, 59374,48, 0,00, 0,00, 0,00, 0,00, 0,00, -0,03, -0,01, 0,96
104, 0,00, 33290,51, 40248,09, 0,00, 0,00, 0,00, 0,00, 0,00, -0,03, -0,01, 0,96
105, 0,00, 53466,40, 33708,48, 0,00, 0,00, 0,00, 0,00, 0,00, -0,03, -0,01, 0,96
106, 0,00, 19180,68, 48981,79, 0,00, 0,00, 0,00, 0,00, 0,00, -0,02, -0,01, 0,97
107, 0,00, -22294,34, 65368,32, 0,00, 0,00, 0,00, 0,00, 0,00, -0,02, -0,01, 0,97
108, 0,00, -12237,87, 59487,96, 0,00, 0,00, 0,00, 0,00, 0,00, -0,02, -0,01, 0,97
109, 0,00, 33060,20, 40350,95, 0,00, 0,00, 0,00, 0,00, 0,00, -0,02, -0,01, 0,97
110, 0,00, 53561,93, 33680,93, 0,00, 0,00, 0,00, 0,00, 0,00, -0,02, -0,01, 0,97
111, 0,00, 19419,89, 48876,18, 0,00, 0,00, 0,00, 0,00, 0,00, -0,01, -0,01, 0,97
112, 0,00, -22260,97, 65343,07, 0,00, 0,00, 0,00, 0,00, 0,00, -0,01, -0,01, 0,97
113, 0,00, -12485,46, 59584,56, 0,00, 0,00, 0,00, 0,00, 0,00, -0,01, -0,01, 0,97
114, 0,00, 32765,18, 40467,07, 0,00, 0,00, 0,00, 0,00, 0,00, -0,01, -0,01, 0,97
115, 0,00, 53720,54, 33594,18, 0,00, 0,00, 0,00, 0,00, 0,00, -0,01, -0,01, 0,97
116, 0,00, 19830,67, 48685,56, 0,00, 0,00, 0,00, 0,00, 0,00, -0,01, -0,01, 0,96
117, 0,00, -22047,67, 65246,84, 0,00, 0,00, 0,00, 0,00, 0,00, -0,01, -0,01, 0,96
118, 0,00, -12704,82, 59662,91, 0,00, 0,00, 0,00, 0,00, 0,00, -0,01, -0,01, 0,96
119, 0,00, 32846,13, 40440,34, 0,00, 0,00, 0,00, 0,00, 0,00, -0,01, -0,01, 0,96
120, 0,00, 53985,45, 33492,70, 0,00, 0,00, 0,00, 0,00, 0,00, -0,01, -0,01, 0,96
121, 0,00, 20057,29, 48583,97, 0,00, 0,00, 0,00, 0,00, 0,00, -0,01, -0,01, 0,96
122, 0,00, -21956,99, 65239,62, 0,00, 0,00, 0,00, 0,00, 0,00, -0,02, -0,01, 0,97
123, 0,00, -12965,55, 59809,55, 0,00, 0,00, 0,00, 0,00, 0,00, -0,02, -0,01, 0,97
124, 0,00, 32267,67, 40673,04, 0,00, 0,00, 0,00, 0,00, 0,00, -0,02, -0,01, 0,97
125, 0,00, 53910,73, 33516,39, 0,00, 0,00, 0,00, 0,00, 0,00, -0,02, -0,01, 0,97
126, 0,00, 20355,76, 48472,50, 0,00, 0,00, 0,00, 0,00, 0,00, -0,02, -0,01, 0,97
127, 0,00, -21922,95, 65190,83, 0,00, 0,00, 0,00, 0,00, 0,00, -0,01, -0,01, 0,97
128, 0,00, -13229,37, 59898,56, 0,00, 0,00, 0,00, 0,00, 0,00, -0,01, -0,01, 0,97
129, 0,00, 32239,22, 40723,47, 0,00, 0,00, 0,00, 0,00, 0,00, -0,01, -0,01, 0,97
130, 0,00, 54170,57, 33454,14, 0,00, 0,00, 0,00, 0,00, 0,00, -0,01, -0,01, 0,97
131, 0,00, 20713,76, 48338,21, 0,00, 0,00, 0,00, 0,00, 0,00, -0,01, -0,01, 0,97
132, 0,00, -21617,60, 65093,73, 0,00, 0,00, 0,00, 0,00, 0,00, -0,01, -0,00, 0,97
133, 0,00, -13457,22, 59996,17, 0,00, 0,00, 0,00, 0,00, 0,00, -0,01, -0,00, 0,97
134, 0,00, 31761,13, 40893,83, 0,00, 0,00, 0,00, 0,00, 0,00, -0,01, -0,00, 0,97
135, 0,00, 54162,28, 33432,69, 0,00, 0,00, 0,00, 0,00, 0,00, -0,01, -0,00, 0,97
136, 0,00, 21009,05, 48206,23, 0,00, 0,00, 0,00, 0,00, 0,00, -0,01, -0,00, 0,97
137, 0,00, -21578,53, 65046,95, 0,00, 0,00, 0,00, 0,00, 0,00, -0,01, -0,01, 0,98
138, 0,00, -13739,15, 60096,06, 0,00, 0,00, 0,00, 0,00, 0,00, -0,01, -0,01, 0,98
139, 0,00, 31531,74, 40986,32, 0,00, 0,00, 0,00, 0,00, 0,00, -0,01, -0,01, 0,98
140, 0,00, 54288,45, 33374,98, 0,00, 0,00, 0,00, 0,00, 0,00, -0,01, -0,01, 0,98
141, 0,00, 21322,11, 48039,73, 0,00, 0,00, 0,00, 0,00, 0,00, -0,01, -0,01, 0,98
142, 0,00, -21342,92, 64951,38, 0,00, 0,00, 0,00, 0,00, 0,00, -0,02, -0,01, 0,98
143, 0,00, -13931,84, 60193,67, 0,00, 0,00, 0,00, 0,00, 0,00, -0,02, -0,01, 0,98
144, 0,00, 31330,97, 41083,40, 0,00, 0,00, 0,00, 0,00, 0,00, -0,02, -0,01, 0,98
145, 0,00, 54431,14, 33328,89, 0,00, 0,00, 0,00, 0,00, 0,00, -0,02, -0,01, 0,98
146, 0,00, 21671,13, 47913,98, 0,00, 0,00, 0,00, 0,00, 0,00, -0,02, -0,01, 0,98
147, 0,00, -21188,11, 64892,01, 0,00, 0,00, 0,00, 0,00, 0,00, -0,02, -0,01, 0,98
148, 0,00, -14212,62, 60294,16, 0,00, 0,00, 0,00, 0,00, 0,00, -0,02, -0,01, 0,98
149, 0,00, 30994,89, 41204,01, 0,00, 0,00, 0,00, 0,00, 0,00, -0,02, -0,01, 0,98
150, 0,00, 54464,34, 33295,61, 0,00, 0,00, 0,00, 0,00, 0,00, -0,02, -0,01, 0,98
151, 0,00, 21964,48, 47795,76, 0,00, 0,00, 0,00, 0,00, 0,00, -0,02, -0,01, 0,98
152, 0,00, -21029,62, 64861,39, 0,00, 0,00, 0,00, 0,00, 0,00, -0,02, -0,01, 0,98
153, 0,00, -14467,57, 60420,43, 0,00, 0,00, 0,00, 0,00, 0,00, -0,01, -0,01, 0,97
154, 0,00, 30617,75, 41361,93, 0,00, 0,00, 0,00, 0,00, 0,00, -0,01, -0,01, 0,97
155, 0,00, 54514,92, 33289,37, 0,00, 0,00, 0,00, 0,00, 0,00, -0,01, -0,01, 0,97
156, 0,00, 22276,17, 47685,30, 0,00, 0,00, 0,00, 0,00, 0,00, -0,01, -0,01, 0,97
157, 0,00, -20947,65, 64828,19, 0,00, 0,00, 0,00, 0,00, 0,00, -0,01, -0,01, 0,97
158, 0,00, -14779,46, 60537,69, 0,00, 0,00, 0,00, 0,00, 0,00, -0,01, -0,01, 0,97
159, 0,00, 30360,42, 41470,09, 0,00, 0,00, 0,00, 0,00, 0,00, -0,01, -0,01, 0,97
160, 0,00, 54631,48, 33245,40, 0,00, 0,00, 0,00, 0,00, 0,00, -0,01, -0,01, 0,97
161, 0,00, 22619,03, 47539,30, 0,00, 0,00, 0,00, 0,00, 0,00, -0,01, -0,01, 0,97
162, 0,00, -20789,02, 64738,03, 0,00, 0,00, 0,00, 0,00, 0,00, -0,01, -0,01, 0,97
163, 0,00, -15026,83, 60605,16, 0,00, 0,00, 0,00, 0,00, 0,00, -0,01, -0,01, 0,97
164, 0,00, 30033,75, 41581,53, 0,00, 0,00, 0,00, 0,00, 0,00, -0,01, -0,01, 0,97
165, 0,00, 54733,86, 33199,87, 0,00, 0,00, 0,00, 0,00, 0,00, -0,01, -0,01, 0,97
166, 0,00, 22938,28, 47393,36, 0,00, 0,00, 0,00, 0,00, 0,00, -0,01, -0,01, 0,97
167, 0,00, -20677,78, 64661,23, 0,00, 0,00, 0,00, 0,00, 0,00, -0,01, -0,01, 0,97
168, 0,00, -15315,73, 60697,79, 0,00, 0,00, 0,00, 0,00, 0,00, -0,01, -0,01, 0,97
169, 0,00, 29767,81, 41673,89, 0,00, 0,00, 0,00, 0,00, 0,00, -0,01, -0,01, 0,97
170, 0,00, 54785,91, 33178,01, 0,00, 0,00, 0,00, 0,00, 0,00, -0,01, -0,01, 0,97
171, 0,00, 23156,47, 47301,68, 0,00, 0,00, 0,00, 0,00, 0,00, -0,01, -0,01, 0,97
172, 0,00, -20563,72, 64612,41, 0,00, 0,00, 0,00, 0,00, 0,00, -0,01, -0,01, 0,97
173, 0,00, -15613,32, 60822,87, 0,00, 0,00, 0,00, 0,00, 0,00, -0,00, -0,01, 0,97
174, 0,00, 29378,77, 41859,21, 0,00, 0,00, 0,00, 0,00, 0,00, -0,00, -0,01, 0,97
175, 0,00, 54774,63, 33212,37, 0,00, 0,00, 0,00, 0,00, 0,00, -0,00, -0,01, 0,97
176, 0,00, 23431,36, 47208,87, 0,00, 0,00, 0,00, 0,00, 0,00, -0,00, -0,01, 0,97
177, 0,00, -20431,84, 64573,02, 0,00, 0,00, 0,00, 0,00, 0,00, -0,00, -0,01, 0,97
178, 0,00, -15930,40, 60957,14, 0,00, 0,00, 0,00, 0,00, 0,00, -0,01, -0,01, 0,97
179, 0,00, 29005,21, 42030,09, 0,00, 0,00, 0,00, 0,00, 0,00, -0,01, -0,01, 0,97
180, 0,00, 54795,59, 33244,89, 0,00, 0,00, 0,00, 0,00, 0,00, -0,01, -0,01, 0,97
181, 0,00, 23730,47, 47105,88, 0,00, 0,00, 0,00, 0,00, 0,00, -0,01, -0,01, 0,97
182, 0,00, -20284,34, 64518,60, 0,00, 0,00, 0,00, 0,00, 0,00, -0,01, -0,01, 0,97
183, 0,00, -16170,26, 61060,74, 0,00, 0,00, 0,00, 0,00, 0,00, -0,01, -0,01, 0,97
184, 0,00, 28632,79, 42180,45, 0,00, 0,00, 0,00, 0,00, 0,00, -0,01, -0,02, 0,97
185, 0,00, 54783,95, 33233,96, 0,00, 0,00, 0,00, 0,00, 0,00, -0,01, -0,02, 0,97
186, 0,00, 24047,26, 46966,89, 0,00, 0,00, 0,00, 0,00, 0,00, -0,01, -0,02, 0,97
187, 0,00, -20095,09, 64425,30, 0,00, 0,00, 0,00, 0,00, 0,00, -0,01, -0,02, 0,97
188, 0,00, -16435,37, 61151,64, 0,00, 0,00, 0,00, 0,00, 0,00, -0,01, -0,02, 0,97
189, 0,00, 28336,58, 42289,84, 0,00, 0,00, 0,00, 0,00, 0,00, -0,00, -0,01, 0,97
190, 0,00, 54861,44, 33198,11, 0,00, 0,00, 0,00, 0,00, 0,00, -0,00, -0,01, 0,97
191, 0,00, 24344,38, 46819,97, 0,00, 0,00, 0,00, 0,00, 0,00, -0,00, -0,01, 0,97
192, 0,00, -19914,46, 64326,42, 0,00, 0,00, 0,00, 0,00, 0,00, -0,00, -0,01, 0,97
193, 0,00, -16671,72, 61242,68, 0,00, 0,00, 0,00, 0,00, 0,00, -0,00, -0,01, 0,97
194, 0,00, 28064,13, 42410,78, 0,00, 0,00, 0,00, 0,00, 0,00, -0,00, -0,01, 0,98
195, 0,00, 55012,43, 33153,76, 0,00, 0,00, 0,00, 0,00, 0,00, -0,00, -0,01, 0,98
196, 0,00, 24785,07, 46660,11, 0,00, 0,00, 0,00, 0,00, 0,00, -0,00, -0,01, 0,98
197, 0,00, -19677,76, 64243,40, 0,00, 0,00, 0,00, 0,00, 0,00, -0,00, -0,01, 0,98
198, 0,00, -16924,65, 61339,42, 0,00, 0,00, 0,00, 0,00, 0,00, -0,00, -0,01, 0,98
199, 0,00, 27753,02, 42557,79, 0,00, 0,00, 0,00, 0,00, 0,00, -0,01, -0,02, 0,98
200, 0,00, 55076,91, 33161,67, 0,00, 0,00, 0,00, 0,00, 0,00, -0,01, -0,02, 0,98
201, 0,00, 25062,83, 46574,60, 0,00, 0,00, 0,00, 0,00, 0,00, -0,01, -0,02, 0,98
202, 0,00, -19558,49, 64202,97, 0,00, 0,00, 0,00, 0,00, 0,00, -0,01, -0,02, 0,98
203, 0,00, -17187,55, 61451,98, 0,00, 0,00, 0,00, 0,00, 0,00, -0,01, -0,02, 0,98
204, 0,00, 27490,43, 42689,53, 0,00, 0,00, 0,00, 0,00, 0,00, -0,00, -0,01, 0,98
205, 0,00, 55162,16, 33163,64, 0,00, 0,00, 0,00, 0,00, 0,00, -0,00, -0,01, 0,98
206, 0,00, 25351,55, 46468,71, 0,00, 0,00, 0,00, 0,00, 0,00, -0,00, -0,01, 0,98
207, 0,00, -19424,80, 64134,15, 0,00, 0,00, 0,00, 0,00, 0,00, -0,00, -0,01, 0,98
208, 0,00, -17493,12, 61550,80, 0,00, 0,00, 0,00, 0,00, 0,00, -0,00, -0,01, 0,98
209, 0,00, 27067,76, 42823,44, 0,00, 0,00, 0,00, 0,00, 0,00, -0,01, -0,01, 0,98
210, 0,00, 55131,71, 33149,40, 0,00, 0,00, 0,00, 0,00, 0,00, -0,01, -0,01, 0,98
211, 0,00, 25614,56, 46346,00, 0,00, 0,00, 0,00, 0,00, 0,00, -0,01, -0,01, 0,98
212, 0,00, -19211,99, 64051,71, 0,00, 0,00, 0,00, 0,00, 0,00, -0,01, -0,01, 0,98
213, 0,00, -17688,32, 61630,57, 0,00, 0,00, 0,00, 0,00, 0,00, -0,01, -0,01, 0,98
214, 0,00, 26734,34, 42950,57, 0,00, 0,00, 0,00, 0,00, 0,00, -0,01, -0,01, 0,98
215, 0,00, 55087,17, 33139,68, 0,00, 0,00, 0,00, 0,00, 0,00, 0,03, -0,02, 0,98
216, 0,00, 25884,95, 46218,22, 0,00, 0,00, 0,00, 0,00, 0,00, 0,03, -0,02, 0,98
217, 0,00, -19132,45, 63994,25, 0,00, 0,00, 0,00, 0,00, 0,00, 0,03, -0,02, 0,98
218, 0,00, -17974,71, 61731,02, 0,00, 0,00, 0,00, 0,00, 0,00, 0,03, -0,02, 0,98
219, 0,00, 26504,88, 43054,55, 0,00, 0,00, 0,00, 0,00, 0,00, 0,03, -0,02, 0,98
220, 0,00, 55206,44, 33115,85, 0,00, 0,00, 0,00, 0,00, 0,00, 0,01, -0,01, 0,97
221, 0,00, 26147,18, 46110,80, 0,00, 0,00, 0,00, 0,00, 0,00, 0,01, -0,01, 0,97
222, 0,00, -18922,63, 63922,72, 0,00, 0,00, 0,00, 0,00, 0,00, 0,01, -0,01, 0,97
