%OpenBCI Raw EEG Data
%
%Sample Rate = 250.0 Hz
%First Column = SampleIndex
%Other Columns = EEG data in microvolts followed by Accel Data (in G) interleaved with Aux Data
0, 0,00, -1664,31, -10309,05, 0,00, 0,00, 0,00, 0,00, 0,00, 0,00, -0,01, 0,51
1, 0,00, 17027,42, -58097,03, 0,00, 0,00, 0,00, 0,00, 0,00, 0,00, -0,01, 0,51
2, 0,00, 18663,71, -82244,16, 0,00, 0,00, 0,00, 0,00, 0,00, -0,01, -0,02, 1,01
3, 0,00, 449,74, -47730,36, 0,00, 0,00, 0,00, 0,00, 0,00, -0,01, -0,02, 1,01
4, 0,00, -12683,99, -2380,42, 0,00, 0,00, 0,00, 0,00, 0,00, -0,01, -0,02, 1,01
5, 0,00, -1842,01, -9967,22, 0,00, 0,00, 0,00, 0,00, 0,00, -0,01, -0,02, 1,01
6, 0,00, 16839,69, -57570,11, 0,00, 0,00, 0,00, 0,00, 0,00, -0,01, -0,02, 1,01
7, 0,00, 18690,28, -82110,07, 0,00, 0,00, 0,00, 0,00, 0,00, -0,01, -0,02, 1,01
8, 0,00, 593,95, -47990,40, 0,00, 0,00, 0,00, 0,00, 0,00, -0,01, -0,02, 1,01
9, 0,00, -12685,20, -2539,31, 0,00, 0,00, 0,00, 0,00, 0,00, -0,01, -0,02, 1,01
10, 0,00, -1997,42, -9610,18, 0,00, 0,00, 0,00, 0,00, 0,00, -0,01, -0,02, 1,01
11, 0,00, 16760,34, -57172,61, 0,00, 0,00, 0,00, 0,00, 0,00, -0,01, -0,02, 1,01
12, 0,00, 18858,77, -82345,03, 0,00, 0,00, 0,00, 0,00, 0,00, 0,00, -0,02, 1,01
13, 0,00, 776,70, -48573,94, 0,00, 0,00, 0,00, 0,00, 0,00, 0,00, -0,02, 1,01
14, 0,00, -12667,52, -2823,36, 0,00, 0,00, 0,00, 0,00, 0,00, 0,00, -0,02, 1,01
15, 0,00, -2181,11, -9340,82, 0,00, 0,00, 0,00, 0,00, 0,00, 0,00, -0,02, 1,01
16, 0,00, 16605,74, -56768,89, 0,00, 0,00, 0,00, 0,00, 0,00, 0,00, -0,02, 1,01
17, 0,00, 18972,36, -82452,72, 0,00, 0,00, 0,00, 0,00, 0,00, -0,00, -0,02, 1,01
18, 0,00, 988,77, -49072,34, 0,00, 0,00, 0,00, 0,00, 0,00, -0,00, -0,02, 1,01
19, 0,00, -12632,69, -3174,91, 0,00, 0,00, 0,00, 0,00, 0,00, -0,00, -0,02, 1,01
20, 0,00, -2368,26, -9098,41, 0,00, 0,00, 0,00, 0,00, 0,00, -0,00, -0,02, 1,01
21, 0,00, 16441,56, -56297,02, 0,00, 0,00, 0,00, 0,00, 0,00, -0,00, -0,02, 1,01
22, 0,00, 19020,08, -82413,00, 0,00, 0,00, 0,00, 0,00, 0,00, -0,00, -0,02, 1,01
23, 0,00, 1101,18, -49356,94, 0,00, 0,00, 0,00, 0,00, 0,00, -0,00, -0,02, 1,01
24, 0,00, -12641,92, -3201,86, 0,00, 0,00, 0,00, 0,00, 0,00, -0,00, -0,02, 1,01
25, 0,00, -2521,37, -8633,74, 0,00, 0,00, 0,00, 0,00, 0,00, -0,00, -0,02, 1,01
26, 0,00, 16364,45, -55934,84, 0,00, 0,00, 0,00, 0,00, 0,00, -0,00, -0,02, 1,01
27, 0,00, 19175,18, -82639,20, 0,00, 0,00, 0,00, 0,00, 0,00, -0,00, -0,01, 1,01
28, 0,00, 1297,30, -49888,24, 0,00, 0,00, 0,00, 0,00, 0,00, -0,00, -0,01, 1,01
29, 0,00, -12639,22, -3418,72, 0,00, 0,00, 0,00, 0,00, 0,00, -0,00, -0,01, 1,01
30, 0,00, -2666,07, -8399,38, 0,00, 0,00, 0,00, 0,00, 0,00, -0,00, -0,01, 1,01
31, 0,00, 16233,09, -55493,97, 0,00, 0,00, 0,00, 0,00, 0,00, -0,00, -0,01, 1,01
32, 0,00, 19255,09, -82608,34, 0,00, 0,00, 0,00, 0,00, 0,00, -0,00, -0,01, 1,01
33, 0,00, 1534,07, -50391,43, 0,00, 0,00, 0,00, 0,00, 0,00, -0,00, -0,01, 1,01
34, 0,00, -12541,92, -3915,78, 0,00, 0,00, 0,00, 0,00, 0,00, -0,00, -0,01, 1,01
35, 0,00, -2860,73, -8172,27, 0,00, 0,00, 0,00, 0,00, 0,00, -0,00, -0,01, 1,01
36, 0,00, 16087,94, -55130,75, 0,00, 0,00, 0,00, 0,00, 0,00, -0,00, -0,01, 1,01
37, 0,00, 19348,32, -82736,70, 0,00, 0,00, 0,00, 0,00, 0,00, 0,00, -0,01, 1,01
38, 0,00, 1605,55, -50685,42, 0,00, 0,00, 0,00, 0,00, 0,00, 0,00, -0,01, 1,01
39, 0,00, -12646,46, -3766,92, 0,00, 0,00, 0,00, 0,00, 0,00, 0,00, -0,01, 1,01
40, 0,00, -3053,29, -7674,38, 0,00, 0,00, 0,00, 0,00, 0,00, 0,00, -0,01, 1,01
41, 0,00, 15952,46, -54523,01, 0,00, 0,00, 0,00, 0,00, 0,00, 0,00, -0,01, 1,01
42, 0,00, 19468,59, -82737,08, 0,00, 0,00, 0,00, 0,00, 0,00, 0,00, -0,01, 1,01
43, 0,00, 1837,38, -51285,70, 0,00, 0,00, 0,00, 0,00, 0,00, 0,00, -0,01, 1,01
44, 0,00, -12540,92, -4381,14, 0,00, 0,00, 0,00, 0,00, 0,00, 0,00, -0,01, 1,01
45, 0,00, -3238,81, -7561,51, 0,00, 0,00, 0,00, 0,00, 0,00, 0,00, -0,01, 1,01
46, 0,00, 15809,05, -54301,91, 0,00, 0,00, 0,00, 0,00, 0,00, 0,00, -0,01, 1,01
47, 0,00, 19568,68, -82839,12, 0,00, 0,00, 0,00, 0,00, 0,00, 0,00, -0,01, 1,01
48, 0,00, 1997,66, -51684,03, 0,00, 0,00, 0,00, 0,00, 0,00, 0,00, -0,01, 1,01
49, 0,00, -12574,53, -4446,30, 0,00, 0,00, 0,00, 0,00, 0,00, 0,00, -0,01, 1,01
50, 0,00, -3350,15, -7151,26, 0,00, 0,00, 0,00, 0,00, 0,00, 0,00, -0,01, 1,01
51, 0,00, 15662,18, -53703,24, 0,00, 0,00, 0,00, 0,00, 0,00, 0,00, -0,01, 1,01
52, 0,00, 19613,92, -82791,22, 0,00, 0,00, 0,00, 0,00, 0,00, 0,00, -0,01, 1,01
53, 0,00, 2179,25, -52044,22, 0,00, 0,00, 0,00, 0,00, 0,00, 0,00, -0,01, 1,01
54, 0,00, -12471,33, -4723,82, 0,00, 0,00, 0,00, 0,00, 0,00, 0,00, -0,01, 1,01
55, 0,00, -3542,89, -6845,47, 0,00, 0,00, 0,00, 0,00, 0,00, 0,00, -0,01, 1,01
56, 0,00, 15524,34, -53324,36, 0,00, 0,00, 0,00, 0,00, 0,00, 0,00, -0,01, 1,01
57, 0,00, 19687,73, -82796,36, 0,00, 0,00, 0,00, 0,00, 0,00, 0,00, -0,02, 1,01
58, 0,00, 2347,58, -52471,21, 0,00, 0,00, 0,00, 0,00, 0,00, 0,00, -0,02, 1,01
59, 0,00, -12442,68, -5057,33, 0,00, 0,00, 0,00, 0,00, 0,00, 0,00, -0,02, 1,01
60, 0,00, -3668,46, -6661,60, 0,00, 0,00, 0,00, 0,00, 0,00, 0,00, -0,02, 1,01
61, 0,00, 15388,88, -52878,13, 0,00, 0,00, 0,00, 0,00, 0,00, 0,00, -0,02, 1,01
62, 0,00, 19804,16, -82881,23, 0,00, 0,00, 0,00, 0,00, 0,00, -0,00, -0,02, 1,01
63, 0,00, 2530,91, -52959,26, 0,00, 0,00, 0,00, 0,00, 0,00, -0,00, -0,02, 1,01
64, 0,00, -12415,48, -5377,76, 0,00, 0,00, 0,00, 0,00, 0,00, -0,00, -0,02, 1,01
65, 0,00, -3872,06, -6321,54, 0,00, 0,00, 0,00, 0,00, 0,00, -0,00, -0,02, 1,01
66, 0,00, 15218,81, -52333,23, 0,00, 0,00, 0,00, 0,00, 0,00, -0,00, -0,02, 1,01
67, 0,00, 19893,41, -82898,28, 0,00, 0,00, 0,00, 0,00, 0,00, 0,00, -0,02, 1,01
68, 0,00, 2675,26, -53375,05, 0,00, 0,00, 0,00, 0,00, 0,00, 0,00, -0,02, 1,01
69, 0,00, -12391,29, -5632,46, 0,00, 0,00, 0,00, 0,00, 0,00, 0,00, -0,02, 1,01
70, 0,00, -4044,44, -6014,05, 0,00, 0,00, 0,00, 0,00, 0,00, 0,00, -0,02, 1,01
71, 0,00, 15045,61, -51834,97, 0,00, 0,00, 0,00, 0,00, 0,00, 0,00, -0,02, 1,01
72, 0,00, 19920,79, -82762,27, 0,00, 0,00, 0,00, 0,00, 0,00, 0,00, -0,01, 1,01
73, 0,00, 2897,37, -53804,69, 0,00, 0,00, 0,00, 0,00, 0,00, 0,00, -0,01, 1,01
74, 0,00, -12259,35, -6166,80, 0,00, 0,00, 0,00, 0,00, 0,00, 0,00, -0,01, 1,01
75, 0,00, -4197,34, -5794,49, 0,00, 0,00, 0,00, 0,00, 0,00, 0,00, -0,01, 1,01
76, 0,00, 14913,15, -51435,81, 0,00, 0,00, 0,00, 0,00, 0,00, 0,00, -0,01, 1,01
77, 0,00, 20021,87, -82809,86, 0,00, 0,00, 0,00, 0,00, 0,00, 0,00, -0,02, 1,01
78, 0,00, 3090,78, -54296,50, 0,00, 0,00, 0,00, 0,00, 0,00, 0,00, -0,02, 1,01
79, 0,00, -12229,35, -6399,39, 0,00, 0,00, 0,00, 0,00, 0,00, 0,00, -0,02, 1,01
80, 0,00, -4370,03, -5489,30, 0,00, 0,00, 0,00, 0,00, 0,00, 0,00, -0,02, 1,01
81, 0,00, 14758,59, -51003,71, 0,00, 0,00, 0,00, 0,00, 0,00, 0,00, -0,02, 1,01
82, 0,00, 20051,55, -82761,22, 0,00, 0,00, 0,00, 0,00, 0,00, 0,00, -0,02, 1,01
83, 0,00, 3256,27, -54683,23, 0,00, 0,00, 0,00, 0,00, 0,00, 0,00, -0,02, 1,01
84, 0,00, -12137,20, -6828,03, 0,00, 0,00, 0,00, 0,00, 0,00, 0,00, -0,02, 1,01
85, 0,00, -4580,30, -5179,82, 0,00, 0,00, 0,00, 0,00, 0,00, 0,00, -0,02, 1,01
86, 0,00, 14542,67, -50443,50, 0,00, 0,00, 0,00, 0,00, 0,00, 0,00, -0,02, 1,01
87, 0,00, 20134,25, -82675,57, 0,00, 0,00, 0,00, 0,00, 0,00, -0,00, -0,01, 1,01
88, 0,00, 3412,24, -55009,21, 0,00, 0,00, 0,00, 0,00, 0,00, -0,00, -0,01, 1,01
89, 0,00, -12093,32, -7072,02, 0,00, 0,00, 0,00, 0,00, 0,00, -0,00, -0,01, 1,01
90, 0,00, -4681,86, -4979,99, 0,00, 0,00, 0,00, 0,00, 0,00, -0,00, -0,01, 1,01
91, 0,00, 14458,63, -50105,90, 0,00, 0,00, 0,00, 0,00, 0,00, -0,00, -0,01, 1,01
92, 0,00, 20234,86, -82791,66, 0,00, 0,00, 0,00, 0,00, 0,00, 0,00, -0,02, 1,01
93, 0,00, 3603,01, -55535,61, 0,00, 0,00, 0,00, 0,00, 0,00, 0,00, -0,02, 1,01
94, 0,00, -12066,08, -7346,39, 0,00, 0,00, 0,00, 0,00, 0,00, 0,00, -0,02, 1,01
95, 0,00, -4860,99, -4686,33, 0,00, 0,00, 0,00, 0,00, 0,00, 0,00, -0,02, 1,01
96, 0,00, 14269,08, -49572,10, 0,00, 0,00, 0,00, 0,00, 0,00, 0,00, -0,02, 1,01
97, 0,00, 20309,44, -82712,90, 0,00, 0,00, 0,00, 0,00, 0,00, 0,00, -0,02, 1,00
98, 0,00, 3794,21, -55931,06, 0,00, 0,00, 0,00, 0,00, 0,00, 0,00, -0,02, 1,00
99, 0,00, -12026,20, -7591,26, 0,00, 0,00, 0,00, 0,00, 0,00, 0,00, -0,02, 1,00
100, 0,00, -5027,29, -4273,59, 0,00, 0,00, 0,00, 0,00, 0,00, 0,00, -0,02, 1,00
101, 0,00, 14138,64, -48982,55, 0,00, 0,00, 0,00, 0,00, 0,00, 0,00, -0,02, 1,00
102, 0,00, 20395,03, -82627,00, 0,00, 0,00, 0,00, 0,00, 0,00, 0,00, -0,01, 1,01
103, 0,00, 3977,92, -56306,41, 0,00, 0,00, 0,00, 0,00, 0,00, 0,00, -0,01, 1,01
104, 0,00, -11934,40, -7941,49, 0,00, 0,00, 0,00, 0,00, 0,00, 0,00, -0,01, 1,01
105, 0,00, -5179,73, -4108,45, 0,00, 0,00, 0,00, 0,00, 0,00, 0,00, -0,01, 1,01
106, 0,00, 14002,45, -48605,03, 0,00, 0,00, 0,00, 0,00, 0,00, 0,00, -0,01, 1,01
107, 0,00, 20476,46, -82649,53, 0,00, 0,00, 0,00, 0,00, 0,00, 0,00, -0,02, 1,01
108, 0,00, 4169,52, -56775,51, 0,00, 0,00, 0,00, 0,00, 0,00, 0,00, -0,02, 1,01
109, 0,00, -11840,03, -8331,95, 0,00, 0,00, 0,00, 0,00, 0,00, 0,00, -0,02, 1,01
110, 0,00, -5307,87, -3860,53, 0,00, 0,00, 0,00, 0,00, 0,00, 0,00, -0,02, 1,01
111, 0,00, 13843,89, -48132,96, 0,00, 0,00, 0,00, 0,00, 0,00, 0,00, -0,02, 1,01
112, 0,00, 20526,05, -82541,91, 0,00, 0,00, 0,00, 0,00, 0,00, -0,00, -0,02, 1,01
113, 0,00, 4344,15, -57141,34, 0,00, 0,00, 0,00, 0,00, 0,00, -0,00, -0,02, 1,01
114, 0,00, -11742,00, -8774,15, 0,00, 0,00, 0,00, 0,00, 0,00, -0,00, -0,02, 1,01
115, 0,00, -5553,80, -3568,08, 0,00, 0,00, 0,00, 0,00, 0,00, -0,00, -0,02, 1,01
116, 0,00, 13622,63, -47380,58, 0,00, 0,00, 0,00, 0,00, 0,00, -0,00, -0,02, 1,01
117, 0,00, 20590,34, -82326,19, 0,00, 0,00, 0,00, 0,00, 0,00, 0,00, -0,02, 1,01
118, 0,00, 4509,06, -57443,85, 0,00, 0,00, 0,00, 0,00, 0,00, 0,00, -0,02, 1,01
119, 0,00, -11698,08, -8940,03, 0,00, 0,00, 0,00, 0,00, 0,00, 0,00, -0,02, 1,01
120, 0,00, -5628,08, -3190,38, 0,00, 0,00, 0,00, 0,00, 0,00, 0,00, -0,02, 1,01
121, 0,00, 13537,47, -47076,59, 0,00, 0,00, 0,00, 0,00, 0,00, 0,00, -0,02, 1,01
122, 0,00, 20640,16, -82410,19, 0,00, 0,00, 0,00, 0,00, 0,00, 0,00, -0,01, 1,01
123, 0,00, 4705,18, -58019,65, 0,00, 0,00, 0,00, 0,00, 0,00, 0,00, -0,01, 1,01
124, 0,00, -11629,08, -9441,51, 0,00, 0,00, 0,00, 0,00, 0,00, 0,00, -0,01, 1,01
125, 0,00, -5850,70, -3053,11, 0,00, 0,00, 0,00, 0,00, 0,00, 0,00, -0,01, 1,01
126, 0,00, 13338,63, -46608,79, 0,00, 0,00, 0,00, 0,00, 0,00, 0,00, -0,01, 1,01
127, 0,00, 20694,14, -82295,12, 0,00, 0,00, 0,00, 0,00, 0,00, -0,00, -0,02, 1,01
128, 0,00, 4876,77, -58224,10, 0,00, 0,00, 0,00, 0,00, 0,00, -0,00, -0,02, 1,01
129, 0,00, -11597,02, -9585,19, 0,00, 0,00, 0,00, 0,00, 0,00, -0,00, -0,02, 1,01
130, 0,00, -5989,78, -2721,03, 0,00, 0,00, 0,00, 0,00, 0,00, -0,00, -0,02, 1,01
131, 0,00, 13214,62, -46066,56, 0,00, 0,00, 0,00, 0,00, 0,00, -0,00, -0,02, 1,01
132, 0,00, 20770,69, -82210,18, 0,00, 0,00, 0,00, 0,00, 0,00, 0,00, -0,02, 1,01
133, 0,00, 5037,26, -58702,21, 0,00, 0,00, 0,00, 0,00, 0,00, 0,00, -0,02, 1,01
134, 0,00, -11544,68, -9768,27, 0,00, 0,00, 0,00, 0,00, 0,00, 0,00, -0,02, 1,01
135, 0,00, -6068,63, -2509,27, 0,00, 0,00, 0,00, 0,00, 0,00, 0,00, -0,02, 1,01
136, 0,00, 13089,47, -45717,56, 0,00, 0,00, 0,00, 0,00, 0,00, 0,00, -0,02, 1,01
137, 0,00, 20844,16, -82266,89, 0,00, 0,00, 0,00, 0,00, 0,00, 0,00, -0,01, 1,01
138, 0,00, 5293,52, -59291,06, 0,00, 0,00, 0,00, 0,00, 0,00, 0,00, -0,01, 1,01
139, 0,00, -11475,03, -10261,10, 0,00, 0,00, 0,00, 0,00, 0,00, 0,00, -0,01, 1,01
140, 0,00, -6278,25, -2297,22, 0,00, 0,00, 0,00, 0,00, 0,00, 0,00, -0,01, 1,01
141, 0,00, 12922,24, -45295,36, 0,00, 0,00, 0,00, 0,00, 0,00, 0,00, -0,01, 1,01
142, 0,00, 20930,46, -82339,47, 0,00, 0,00, 0,00, 0,00, 0,00, -0,00, -0,01, 1,01
143, 0,00, 5436,48, -59606,60, 0,00, 0,00, 0,00, 0,00, 0,00, -0,00, -0,01, 1,01
144, 0,00, -11425,54, -10320,63, 0,00, 0,00, 0,00, 0,00, 0,00, -0,00, -0,01, 1,01
145, 0,00, -6371,45, -2114,85, 0,00, 0,00, 0,00, 0,00, 0,00, -0,00, -0,01, 1,01
146, 0,00, 12741,41, -44901,88, 0,00, 0,00, 0,00, 0,00, 0,00, -0,00, -0,01, 1,01
147, 0,00, 20929,35, -82103,61, 0,00, 0,00, 0,00, 0,00, 0,00, 0,00, -0,02, 1,01
148, 0,00, 5627,54, -60002,79, 0,00, 0,00, 0,00, 0,00, 0,00, 0,00, -0,02, 1,01
149, 0,00, -11306,81, -10960,11, 0,00, 0,00, 0,00, 0,00, 0,00, 0,00, -0,02, 1,01
150, 0,00, -6607,26, -1773,07, 0,00, 0,00, 0,00, 0,00, 0,00, 0,00, -0,02, 1,01
151, 0,00, 12562,98, -44301,69, 0,00, 0,00, 0,00, 0,00, 0,00, 0,00, -0,02, 1,01
152, 0,00, 21000,76, -82061,19, 0,00, 0,00, 0,00, 0,00, 0,00, 0,00, -0,01, 1,00
153, 0,00, 5779,69, -60368,57, 0,00, 0,00, 0,00, 0,00, 0,00, 0,00, -0,01, 1,00
154, 0,00, -11308,69, -11102,38, 0,00, 0,00, 0,00, 0,00, 0,00, 0,00, -0,01, 1,00
155, 0,00, -6727,32, -1553,96, 0,00, 0,00, 0,00, 0,00, 0,00, 0,00, -0,01, 1,00
156, 0,00, 12402,22, -43828,73, 0,00, 0,00, 0,00, 0,00, 0,00, 0,00, -0,01, 1,00
157, 0,00, 21036,16, -81939,41, 0,00, 0,00, 0,00, 0,00, 0,00, 0,00, -0,01, 1,01
158, 0,00, 6021,87, -60886,95, 0,00, 0,00, 0,00, 0,00, 0,00, 0,00, -0,01, 1,01
159, 0,00, -11098,07, -11838,78, 0,00, 0,00, 0,00, 0,00, 0,00, 0,00, -0,01, 1,01
160, 0,00, -6932,48, -1390,66, 0,00, 0,00, 0,00, 0,00, 0,00, 0,00, -0,01, 1,01
161, 0,00, 12222,18, -43414,80, 0,00, 0,00, 0,00, 0,00, 0,00, 0,00, -0,01, 1,01
162, 0,00, 21081,81, -81862,75, 0,00, 0,00, 0,00, 0,00, 0,00, -0,00, -0,01, 1,02
163, 0,00, 6168,81, -61170,08, 0,00, 0,00, 0,00, 0,00, 0,00, -0,00, -0,01, 1,02
164, 0,00, -11095,16, -11961,96, 0,00, 0,00, 0,00, 0,00, 0,00, -0,00, -0,01, 1,02
165, 0,00, -7017,91, -1229,88, 0,00, 0,00, 0,00, 0,00, 0,00, -0,00, -0,01, 1,02
166, 0,00, 12101,17, -43032,07, 0,00, 0,00, 0,00, 0,00, 0,00, -0,00, -0,01, 1,02
167, 0,00, 21109,72, -81785,68, 0,00, 0,00, 0,00, 0,00, 0,00, 0,00, -0,01, 1,01
168, 0,00, 6387,52, -61686,03, 0,00, 0,00, 0,00, 0,00, 0,00, 0,00, -0,01, 1,01
169, 0,00, -10963,26, -12495,05, 0,00, 0,00, 0,00, 0,00, 0,00, 0,00, -0,01, 1,01
170, 0,00, -7247,62, -912,58, 0,00, 0,00, 0,00, 0,00, 0,00, 0,00, -0,01, 1,01
171, 0,00, 11873,34, -42393,23, 0,00, 0,00, 0,00, 0,00, 0,00, 0,00, -0,01, 1,01
172, 0,00, 21151,21, -81602,06, 0,00, 0,00, 0,00, 0,00, 0,00, 0,00, -0,01, 1,01
173, 0,00, 6573,07, -62116,88, 0,00, 0,00, 0,00, 0,00, 0,00, 0,00, -0,01, 1,01
174, 0,00, -10849,69, -12845,08, 0,00, 0,00, 0,00, 0,00, 0,00, 0,00, -0,01, 1,01
175, 0,00, -7352,36, -754,91, 0,00, 0,00, 0,00, 0,00, 0,00, 0,00, -0,01, 1,01
176, 0,00, 11726,42, -42032,70, 0,00, 0,00, 0,00, 0,00, 0,00, 0,00, -0,01, 1,01
177, 0,00, 21160,64, -81379,39, 0,00, 0,00, 0,00, 0,00, 0,00, 0,00, -0,01, 1,01
178, 0,00, 6709,55, -62349,77, 0,00, 0,00, 0,00, 0,00, 0,00, 0,00, -0,01, 1,01
179, 0,00, -10721,08, -13426,87, 0,00, 0,00, 0,00, 0,00, 0,00, 0,00, -0,01, 1,01
180, 0,00, -7450,60, -743,11, 0,00, 0,00, 0,00, 0,00, 0,00, 0,00, -0,01, 1,01
181, 0,00, 11578,34, -41582,09, 0,00, 0,00, 0,00, 0,00, 0,00, 0,00, -0,01, 1,01
182, 0,00, 21259,32, -81419,34, 0,00, 0,00, 0,00, 0,00, 0,00, 0,00, -0,01, 1,02
183, 0,00, 6969,79, -62968,80, 0,00, 0,00, 0,00, 0,00, 0,00, 0,00, -0,01, 1,02
184, 0,00, -10652,30, -13859,00, 0,00, 0,00, 0,00, 0,00, 0,00, 0,00, -0,01, 1,02
185, 0,00, -7642,15, -525,42, 0,00, 0,00, 0,00, 0,00, 0,00, 0,00, -0,01, 1,02
186, 0,00, 11388,91, -41149,09, 0,00, 0,00, 0,00, 0,00, 0,00, 0,00, -0,01, 1,02
187, 0,00, 21242,58, -81253,41, 0,00, 0,00, 0,00, 0,00, 0,00, 0,00, -0,01, 1,01
188, 0,00, 7110,36, -63255,23, 0,00, 0,00, 0,00, 0,00, 0,00, 0,00, -0,01, 1,01
189, 0,00, -10525,97, -14287,55, 0,00, 0,00, 0,00, 0,00, 0,00, 0,00, -0,01, 1,01
190, 0,00, -7760,84, -412,75, 0,00, 0,00, 0,00, 0,00, 0,00, 0,00, -0,01, 1,01
191, 0,00, 11227,75, -40722,08, 0,00, 0,00, 0,00, 0,00, 0,00, 0,00, -0,01, 1,01
192, 0,00, 21327,34, -81289,56, 0,00, 0,00, 0,00, 0,00, 0,00, 0,00, -0,01, 1,01
193, 0,00, 7332,47, -63776,16, 0,00, 0,00, 0,00, 0,00, 0,00, -0,01, -0,02, 1,01
194, 0,00, -10437,88, -14705,17, 0,00, 0,00, 0,00, 0,00, 0,00, -0,01, -0,02, 1,01
195, 0,00, -7866,65, -327,45, 0,00, 0,00, 0,00, 0,00, 0,00, -0,01, -0,02, 1,01
196, 0,00, 11089,59, -40477,18, 0,00, 0,00, 0,00, 0,00, 0,00, -0,01, -0,02, 1,01
197, 0,00, 21344,93, -81257,22, 0,00, 0,00, 0,00, 0,00, 0,00, -0,01, -0,02, 1,01
198, 0,00, 7526,03, -64343,54, 0,00, 0,00, 0,00, 0,00, 0,00, -0,00, -0,01, 1,01
199, 0,00, -10364,84, -15163,33, 0,00, 0,00, 0,00, 0,00, 0,00, -0,00, -0,01, 1,01
200, 0,00, -8031,14, -157,62, 0,00, 0,00, 0,00, 0,00, 0,00, -0,00, -0,01, 1,01
201, 0,00, 10929,51, -39977,25, 0,00, 0,00, 0,00, 0,00, 0,00, -0,00, -0,01, 1,01
202, 0,00, 21361,83, -81098,67, 0,00, 0,00, 0,00, 0,00, 0,00, -0,00, -0,01, 1,01
203, 0,00, 7687,97, -64729,49, 0,00, 0,00, 0,00, 0,00, 0,00, -0,00, -0,01, 1,01
204, 0,00, -10207,10, -15722,60, 0,00, 0,00, 0,00, 0,00, 0,00, -0,00, -0,01, 1,01
205, 0,00, -8097,57, -209,68, 0,00, 0,00, 0,00, 0,00, 0,00, -0,00, -0,01, 1,01
206, 0,00, 10847,75, -39788,14, 0,00, 0,00, 0,00, 0,00, 0,00, -0,00, -0,01, 1,01
207, 0,00, 21496,92, -81370,67, 0,00, 0,00, 0,00, 0,00, 0,00, -0,00, -0,01, 1,01
208, 0,00, 7985,07, -65513,99, 0,00, 0,00, 0,00, 0,00, 0,00, 0,00, -0,01, 1,01
209, 0,00, -9962,98, -16610,30, 0,00, 0,00, 0,00, 0,00, 0,00, 0,00, -0,01, 1,01
210, 0,00, -8135,16, -440,66, 0,00, 0,00, 0,00, 0,00, 0,00, 0,00, -0,01, 1,01
211, 0,00, 10683,55, -39597,75, 0,00, 0,00, 0,00, 0,00, 0,00, 0,00, -0,01, 1,01
212, 0,00, 21484,88, -81398,19, 0,00, 0,00, 0,00, 0,00, 0,00, 0,00, -0,01, 1,01
213, 0,00, 8146,12, -66111,36, 0,00, 0,00, 0,00, 0,00, 0,00, 0,00, -0,01, 1,01
214, 0,00, -9838,32, -17155,46, 0,00, 0,00, 0,00, 0,00, 0,00, 0,00, -0,01, 1,01
215, 0,00, -8357,34, -151,97, 0,00, 0,00, 0,00, 0,00, 0,00, 0,00, -0,01, 1,01
216, 0,00, 10426,84, -38879,99, 0,00, 0,00, 0,00, 0,00, 0,00, 0,00, -0,01, 1,01
217, 0,00, 21467,75, -81004,71, 0,00, 0,00, 0,00, 0,00, 0,00, 0,00, -0,01, 1,01
218, 0,00, 8259,24, -66218,83, 0,00, 0,00, 0,00, 0,00, 0,00, 0,01, -0,01, 1,01
219, 0,00, -9853,14, -17206,37, 0,00, 0,00, 0,00, 0,00, 0,00, 0,01, -0,01, 1,01
220, 0,00, -8536,13, 175,55, 0,00, 0,00, 0,00, 0,00, 0,00, 0,01, -0,01, 1,01
221, 0,00, 10246,49, -38351,39, 0,00, 0,00, 0,00, 0,00, 0,00, 0,01, -0,01, 1,01
222, 0,00, 21471,67, -80741,02, 0,00, 0,00, 0,00, 0,00, 0,00, 0,01, -0,01, 1,01
223, 0,00, 8402,33, -66486,31, 0,00, 0,00, 0,00, 0,00, 0,00, 0,00, -0,02, 1,01
224, 0,00, -9776,00, -17572,31, 0,00, 0,00, 0,00, 0,00, 0,00, 0,00, -0,02, 1,01
225, 0,00, -8688,99, 489,12, 0,00, 0,00, 0,00, 0,00, 0,00, 0,00, -0,02, 1,01
226, 0,00, 10035,91, -37704,69, 0,00, 0,00, 0,00, 0,00, 0,00, 0,00, -0,02, 1,01
227, 0,00, 21419,52, -80402,51, 0,00, 0,00, 0,00, 0,00, 0,00, 0,00, -0,02, 1,01
228, 0,00, 8544,80, -66711,53, 0,00, 0,00, 0,00, 0,00, 0,00, 0,00, -0,02, 1,02
229, 0,00, -9746,01, -17724,49, 0,00, 0,00, 0,00, 0,00, 0,00, 0,00, -0,02, 1,02
230, 0,00, -8901,11, 932,36, 0,00, 0,00, 0,00, 0,00, 0,00, 0,00, -0,02, 1,02
231, 0,00, 9792,48, -36957,49, 0,00, 0,00, 0,00, 0,00, 0,00, 0,00, -0,02, 1,02
232, 0,00, 21265,65, -79793,76, 0,00, 0,00, 0,00, 0,00, 0,00, 0,00, -0,02, 1,02
233, 0,00, 8573,21, -66585,87, 0,00, 0,00, 0,00, 0,00, 0,00, 0,00, -0,01, 1,01
234, 0,00, -9731,17, -17661,05, 0,00, 0,00, 0,00, 0,00, 0,00, 0,00, -0,01, 1,01
235, 0,00, -9122,22, 1512,05, 0,00, 0,00, 0,00, 0,00, 0,00, 0,00, -0,01, 1,01
236, 0,00, 9552,08, -36057,25, 0,00, 0,00, 0,00, 0,00, 0,00, 0,00, -0,01, 1,01
237, 0,00, 21279,17, -79352,63, 0,00, 0,00, 0,00, 0,00, 0,00, 0,00, -0,01, 1,01
238, 0,00, 8703,95, -66586,41, 0,00, 0,00, 0,00, 0,00, 0,00, -0,00, -0,01, 1,01
239, 0,00, -9726,43, -17551,46, 0,00, 0,00, 0,00, 0,00, 0,00, -0,00, -0,01, 1,01
240, 0,00, -9305,88, 2096,57, 0,00, 0,00, 0,00, 0,00, 0,00, -0,00, -0,01, 1,01
241, 0,00, 9307,02, -35193,96, 0,00, 0,00, 0,00, 0,00, 0,00, -0,00, -0,01, 1,01
242, 0,00, 21222,29, -78790,57, 0,00, 0,00, 0,00, 0,00, 0,00, -0,00, -0,01, 1,01
243, 0,00, 8895,06, -66745,37, 0,00, 0,00, 0,00, 0,00, 0,00, 0,00, -0,02, 1,02
244, 0,00, -9628,21, -17701,66, 0,00, 0,00, 0,00, 0,00, 0,00, 0,00, -0,02, 1,02
245, 0,00, -9400,47, 2415,04, 0,00, 0,00, 0,00, 0,00, 0,00, 0,00, -0,02, 1,02
246, 0,00, 9153,02, -34678,82, 0,00, 0,00, 0,00, 0,00, 0,00, 0,00, -0,02, 1,02
247, 0,00, 21216,03, -78512,06, 0,00, 0,00, 0,00, 0,00, 0,00, 0,00, -0,02, 1,02
248, 0,00, 9069,09, -67016,80, 0,00, 0,00, 0,00, 0,00, 0,00, -0,00, -0,02, 1,01
249, 0,00, -9493,23, -18052,97, 0,00, 0,00, 0,00, 0,00, 0,00, -0,00, -0,02, 1,01
250, 0,00, -9531,10, 2662,99, 0,00, 0,00, 0,00, 0,00, 0,00, -0,00, -0,02, 1,01
251, 0,00, 8970,85, -34156,73, 0,00, 0,00, 0,00, 0,00, 0,00, -0,00, -0,02, 1,01
252, 0,00, 21226,80, -78474,76, 0,00, 0,00, 0,00, 0,00, 0,00, -0,00, -0,02, 1,01
253, 0,00, 9226,35, -67495,90, 0,00, 0,00, 0,00, 0,00, 0,00, 0,00, -0,02, 1,02
254, 0,00, -9438,16, -18341,33, 0,00, 0,00, 0,00, 0,00, 0,00, 0,00, -0,02, 1,02
255, 0,00, -9590,51, 2759,55, 0,00, 0,00, 0,00, 0,00, 0,00, 0,00, -0,02, 1,02
0, 0,00, 8908,24, -33862,71, 0,00, 0,00, 0,00, 0,00, 0,00, 0,00, -0,02, 1,02
1, 0,00, 21352,38, -78527,78, 0,00, 0,00, 0,00, 0,00, 0,00, 0,00, -0,02, 1,02
2, 0,00, 9507,11, -68189,49, 0,00, 0,00, 0,00, 0,00, 0,00, 0,00, -0,01, 1,02
3, 0,00, -9161,58, -19261,12, 0,00, 0,00, 0,00, 0,00, 0,00, 0,00, -0,01, 1,02
4, 0,00, -9696,54, 2707,02, 0,00, 0,00, 0,00, 0,00, 0,00, 0,00, -0,01, 1,02
5, 0,00, 8710,00, -33473,77, 0,00, 0,00, 0,00, 0,00, 0,00, 0,00, -0,01, 1,02
6, 0,00, 21301,46, -78343,78, 0,00, 0,00, 0,00, 0,00, 0,00, 0,00, -0,01, 1,02
7, 0,00, 9604,72, -68404,65, 0,00, 0,00, 0,00, 0,00, 0,00, 0,00, -0,02, 1,01
8, 0,00, -9111,00, -19503,44, 0,00, 0,00, 0,00, 0,00, 0,00, 0,00, -0,02, 1,01
9, 0,00, -9835,73, 2877,70, 0,00, 0,00, 0,00, 0,00, 0,00, 0,00, -0,02, 1,01
10, 0,00, 8521,83, -32987,22, 0,00, 0,00, 0,00, 0,00, 0,00, 0,00, -0,02, 1,01
11, 0,00, 21262,07, -78021,94, 0,00, 0,00, 0,00, 0,00, 0,00, 0,00, -0,02, 1,01
12, 0,00, 9803,88, -68808,19, 0,00, 0,00, 0,00, 0,00, 0,00, 0,00, -0,02, 1,02
13, 0,00, -8887,30, -20202,76, 0,00, 0,00, 0,00, 0,00, 0,00, 0,00, -0,02, 1,02
14, 0,00, -9886,89, 2801,25, 0,00, 0,00, 0,00, 0,00, 0,00, 0,00, -0,02, 1,02
15, 0,00, 8332,62, -32647,07, 0,00, 0,00, 0,00, 0,00, 0,00, 0,00, -0,02, 1,02
16, 0,00, 21239,01, -78033,24, 0,00, 0,00, 0,00, 0,00, 0,00, 0,00, -0,02, 1,02
17, 0,00, 10009,92, -69263,74, 0,00, 0,00, 0,00, 0,00, 0,00, 0,00, -0,01, 1,01
18, 0,00, -8702,36, -20753,21, 0,00, 0,00, 0,00, 0,00, 0,00, 0,00, -0,01, 1,01
19, 0,00, -9973,88, 2900,83, 0,00, 0,00, 0,00, 0,00, 0,00, 0,00, -0,01, 1,01
20, 0,00, 8168,89, -32146,55, 0,00, 0,00, 0,00, 0,00, 0,00, 0,00, -0,01, 1,01
21, 0,00, 21238,69, -77670,79, 0,00, 0,00, 0,00, 0,00, 0,00, 0,00, -0,01, 1,01
22, 0,00, 10233,86, -69704,85, 0,00, 0,00, 0,00, 0,00, 0,00, 0,00, -0,01, 1,01
23, 0,00, -8529,89, -21382,86, 0,00, 0,00, 0,00, 0,00, 0,00, 0,00, -0,01, 1,01
24, 0,00, -10076,37, 2705,39, 0,00, 0,00, 0,00, 0,00, 0,00, 0,00, -0,01, 1,01
25, 0,00, 8027,29, -31832,48, 0,00, 0,00, 0,00, 0,00, 0,00, 0,00, -0,01, 1,01
26, 0,00, 21236,12, -77547,97, 0,00, 0,00, 0,00, 0,00, 0,00, 0,00, -0,01, 1,01
27, 0,00, 10458,11, -70172,00, 0,00, 0,00, 0,00, 0,00, 0,00, 0,00, -0,02, 1,01
28, 0,00, -8379,33, -21969,73, 0,00, 0,00, 0,00, 0,00, 0,00, 0,00, -0,02, 1,01
29, 0,00, -10139,73, 2699,60, 0,00, 0,00, 0,00, 0,00, 0,00, 0,00, -0,02, 1,01
30, 0,00, 7855,97, -31411,82, 0,00, 0,00, 0,00, 0,00, 0,00, 0,00, -0,02, 1,01
31, 0,00, 21212,95, -77335,49, 0,00, 0,00, 0,00, 0,00, 0,00, 0,00, -0,02, 1,01
32, 0,00, 10678,88, -70617,18, 0,00, 0,00, 0,00, 0,00, 0,00, 0,00, -0,02, 1,01
33, 0,00, -8200,39, -22525,97, 0,00, 0,00, 0,00, 0,00, 0,00, 0,00, -0,02, 1,01
34, 0,00, -10226,46, 2735,00, 0,00, 0,00, 0,00, 0,00, 0,00, 0,00, -0,02, 1,01
35, 0,00, 7786,01, -31080,12, 0,00, 0,00, 0,00, 0,00, 0,00, 0,00, -0,02, 1,01
36, 0,00, 21295,91, -77252,03, 0,00, 0,00, 0,00, 0,00, 0,00, 0,00, -0,02, 1,01
37, 0,00, 10818,89, -71045,06, 0,00, 0,00, 0,00, 0,00, 0,00, 0,01, -0,01, 1,01
38, 0,00, -8102,64, -22914,47, 0,00, 0,00, 0,00, 0,00, 0,00, 0,01, -0,01, 1,01
39, 0,00, -10314,15, 2867,89, 0,00, 0,00, 0,00, 0,00, 0,00, 0,01, -0,01, 1,01
40, 0,00, 7563,34, -30626,45, 0,00, 0,00, 0,00, 0,00, 0,00, 0,01, -0,01, 1,01
41, 0,00, 21215,04, -76986,49, 0,00, 0,00, 0,00, 0,00, 0,00, 0,01, -0,01, 1,01
42, 0,00, 11009,78, -71352,91, 0,00, 0,00, 0,00, 0,00, 0,00, 0,00, -0,01, 1,02
43, 0,00, -7944,84, -23374,40, 0,00, 0,00, 0,00, 0,00, 0,00, 0,00, -0,01, 1,02
44, 0,00, -10415,17, 2862,72, 0,00, 0,00, 0,00, 0,00, 0,00, 0,00, -0,01, 1,02
45, 0,00, 7384,90, -30283,95, 0,00, 0,00, 0,00, 0,00, 0,00, 0,00, -0,01, 1,02
46, 0,00, 21233,51, -76850,13, 0,00, 0,00, 0,00, 0,00, 0,00, 0,00, -0,01, 1,02
47, 0,00, 11210,20, -71760,81, 0,00, 0,00, 0,00, 0,00, 0,00, 0,00, -0,01, 1,02
48, 0,00, -7754,24, -23961,36, 0,00, 0,00, 0,00, 0,00, 0,00, 0,00, -0,01, 1,02
49, 0,00, -10488,58, 2879,71, 0,00, 0,00, 0,00, 0,00, 0,00, 0,00, -0,01, 1,02
50, 0,00, 7280,54, -29911,53, 0,00, 0,00, 0,00, 0,00, 0,00, 0,00, -0,01, 1,02
51, 0,00, 21243,86, -76711,34, 0,00, 0,00, 0,00, 0,00, 0,00, 0,00, -0,01, 1,02
52, 0,00, 11430,30, -72212,90, 0,00, 0,00, 0,00, 0,00, 0,00, 0,00, -0,01, 1,01
53, 0,00, -7579,83, -24491,86, 0,00, 0,00, 0,00, 0,00, 0,00, 0,00, -0,01, 1,01
54, 0,00, -10579,46, 2793,39, 0,00, 0,00, 0,00, 0,00, 0,00, 0,00, -0,01, 1,01
55, 0,00, 7079,65, -29531,93, 0,00, 0,00, 0,00, 0,00, 0,00, 0,00, -0,01, 1,01
56, 0,00, 21198,42, -76418,73, 0,00, 0,00, 0,00, 0,00, 0,00, 0,00, -0,01, 1,01
57, 0,00, 11563,81, -72480,78, 0,00, 0,00, 0,00, 0,00, 0,00, -0,00, -0,01, 1,01
58, 0,00, -7483,99, -24839,98, 0,00, 0,00, 0,00, 0,00, 0,00, -0,00, -0,01, 1,01
59, 0,00, -10665,85, 2909,12, 0,00, 0,00, 0,00, 0,00, 0,00, -0,00, -0,01, 1,01
60, 0,00, 6873,16, -29011,36, 0,00, 0,00, 0,00, 0,00, 0,00, -0,00, -0,01, 1,01
61, 0,00, 21168,00, -76083,44, 0,00, 0,00, 0,00, 0,00, 0,00, -0,00, -0,01, 1,01
62, 0,00, 11809,75, -72980,09, 0,00, 0,00, 0,00, 0,00, 0,00, 0,00, -0,01, 1,01
63, 0,00, -7291,79, -25622,90, 0,00, 0,00, 0,00, 0,00, 0,00, 0,00, -0,01, 1,01
64, 0,00, -10759,75, 2797,28, 0,00, 0,00, 0,00, 0,00, 0,00, 0,00, -0,01, 1,01
65, 0,00, 6710,73, -28683,28, 0,00, 0,00, 0,00, 0,00, 0,00, 0,00, -0,01, 1,01
66, 0,00, 21126,31, -75913,00, 0,00, 0,00, 0,00, 0,00, 0,00, 0,00, -0,01, 1,01
67, 0,00, 11949,49, -73235,31, 0,00, 0,00, 0,00, 0,00, 0,00, 0,00, -0,01, 1,01
68, 0,00, -7224,13, -25948,83, 0,00, 0,00, 0,00, 0,00, 0,00, 0,00, -0,01, 1,01
69, 0,00, -10917,89, 2953,22, 0,00, 0,00, 0,00, 0,00, 0,00, 0,00, -0,01, 1,01
70, 0,00, 6486,10, -28109,75, 0,00, 0,00, 0,00, 0,00, 0,00, 0,00, -0,01, 1,01
71, 0,00, 21044,19, -75558,70, 0,00, 0,00, 0,00, 0,00, 0,00, 0,00, -0,01, 1,01
72, 0,00, 12069,92, -73427,47, 0,00, 0,00, 0,00, 0,00, 0,00, -0,00, -0,01, 1,02
73, 0,00, -7109,82, -26295,44, 0,00, 0,00, 0,00, 0,00, 0,00, -0,00, -0,01, 1,02
74, 0,00, -10993,53, 3066,70, 0,00, 0,00, 0,00, 0,00, 0,00, -0,00, -0,01, 1,02
75, 0,00, 6352,81, -27732,93, 0,00, 0,00, 0,00, 0,00, 0,00, -0,00, -0,01, 1,02
76, 0,00, 21032,79, -75306,58, 0,00, 0,00, 0,00, 0,00, 0,00, -0,00, -0,01, 1,02
77, 0,00, 12212,97, -73729,87, 0,00, 0,00, 0,00, 0,00, 0,00, 0,00, -0,01, 1,01
78, 0,00, -7012,21, -26670,79, 0,00, 0,00, 0,00, 0,00, 0,00, 0,00, -0,01, 1,01
79, 0,00, -11069,30, 3068,78, 0,00, 0,00, 0,00, 0,00, 0,00, 0,00, -0,01, 1,01
80, 0,00, 6217,07, -27408,56, 0,00, 0,00, 0,00, 0,00, 0,00, 0,00, -0,01, 1,01
81, 0,00, 21032,99, -75183,94, 0,00, 0,00, 0,00, 0,00, 0,00, 0,00, -0,01, 1,01
82, 0,00, 12441,72, -74121,53, 0,00, 0,00, 0,00, 0,00, 0,00, 0,00, -0,01, 1,01
83, 0,00, -6844,01, -27097,62, 0,00, 0,00, 0,00, 0,00, 0,00, 0,00, -0,01, 1,01
84, 0,00, -11220,22, 3181,41, 0,00, 0,00, 0,00, 0,00, 0,00, 0,00, -0,01, 1,01
85, 0,00, 5931,15, -26800,10, 0,00, 0,00, 0,00, 0,00, 0,00, 0,00, -0,01, 1,01
86, 0,00, 20957,44, -74635,02, 0,00, 0,00, 0,00, 0,00, 0,00, 0,00, -0,01, 1,01
87, 0,00, 12567,47, -74246,70, 0,00, 0,00, 0,00, 0,00, 0,00, 0,01, -0,01, 1,01
88, 0,00, -6798,62, -27324,25, 0,00, 0,00, 0,00, 0,00, 0,00, 0,01, -0,01, 1,01
89, 0,00, -11321,63, 3365,48, 0,00, 0,00, 0,00, 0,00, 0,00, 0,01, -0,01, 1,01
90, 0,00, 5842,01, -26397,01, 0,00, 0,00, 0,00, 0,00, 0,00, 0,01, -0,01, 1,01
91, 0,00, 20962,22, -74478,55, 0,00, 0,00, 0,00, 0,00, 0,00, 0,01, -0,01, 1,01
92, 0,00, 12781,75, -74651,83, 0,00, 0,00, 0,00, 0,00, 0,00, 0,01, -0,01, 1,01
93, 0,00, -6589,23, -27854,97, 0,00, 0,00, 0,00, 0,00, 0,00, 0,01, -0,01, 1,01
94, 0,00, -11384,73, 3286,44, 0,00, 0,00, 0,00, 0,00, 0,00, 0,01, -0,01, 1,01
95, 0,00, 5664,62, -25972,93, 0,00, 0,00, 0,00, 0,00, 0,00, 0,01, -0,01, 1,01
96, 0,00, 20919,40, -74238,59, 0,00, 0,00, 0,00, 0,00, 0,00, 0,01, -0,01, 1,01
97, 0,00, 12931,56, -74901,74, 0,00, 0,00, 0,00, 0,00, 0,00, 0,01, -0,01, 1,01
98, 0,00, -6496,82, -28269,23, 0,00, 0,00, 0,00, 0,00, 0,00, 0,01, -0,01, 1,01
99, 0,00, -11517,56, 3458,73, 0,00, 0,00, 0,00, 0,00, 0,00, 0,01, -0,01, 1,01
100, 0,00, 5480,87, -25486,44, 0,00, 0,00, 0,00, 0,00, 0,00, 0,01, -0,01, 1,01
101, 0,00, 20820,81, -73764,87, 0,00, 0,00, 0,00, 0,00, 0,00, 0,01, -0,01, 1,01
102, 0,00, 13054,27, -75093,68, 0,00, 0,00, 0,00, 0,00, 0,00, 0,01, -0,01, 1,01
103, 0,00, -6258,69, -28895,35, 0,00, 0,00, 0,00, 0,00, 0,00, 0,01, -0,01, 1,01
104, 0,00, -11573,15, 3384,64, 0,00, 0,00, 0,00, 0,00, 0,00, 0,01, -0,01, 1,01
105, 0,00, 5210,10, -24841,86, 0,00, 0,00, 0,00, 0,00, 0,00, 0,01, -0,01, 1,01
106, 0,00, 20749,37, -73362,16, 0,00, 0,00, 0,00, 0,00, 0,00, 0,01, -0,01, 1,01
107, 0,00, 13221,50, -75327,50, 0,00, 0,00, 0,00, 0,00, 0,00, 0,00, -0,01, 1,01
108, 0,00, -6182,96, -29108,21, 0,00, 0,00, 0,00, 0,00, 0,00, 0,00, -0,01, 1,01
109, 0,00, -11638,60, 3524,96, 0,00, 0,00, 0,00, 0,00, 0,00, 0,00, -0,01, 1,01
110, 0,00, 5080,77, -24471,29, 0,00, 0,00, 0,00, 0,00, 0,00, 0,00, -0,01, 1,01
111, 0,00, 20668,88, -72937,88, 0,00, 0,00, 0,00, 0,00, 0,00, 0,00, -0,01, 1,01
112, 0,00, 13346,87, -75516,13, 0,00, 0,00, 0,00, 0,00, 0,00, 0,00, -0,01, 1,01
113, 0,00, -5949,41, -29760,97, 0,00, 0,00, 0,00, 0,00, 0,00, 0,00, -0,01, 1,01
114, 0,00, -11675,86, 3350,44, 0,00, 0,00, 0,00, 0,00, 0,00, 0,00, -0,01, 1,01
115, 0,00, 4857,64, -24034,61, 0,00, 0,00, 0,00, 0,00, 0,00, 0,00, -0,01, 1,01
116, 0,00, 20587,05, -72687,58, 0,00, 0,00, 0,00, 0,00, 0,00, 0,00, -0,01, 1,01
117, 0,00, 13530,85, -75736,70, 0,00, 0,00, 0,00, 0,00, 0,00, -0,00, -0,02, 1,01
118, 0,00, -5815,90, -30119,67, 0,00, 0,00, 0,00, 0,00, 0,00, -0,00, -0,02, 1,01
119, 0,00, -11784,96, 3467,25, 0,00, 0,00, 0,00, 0,00, 0,00, -0,00, -0,02, 1,01
120, 0,00, 4654,55, -23500,67, 0,00, 0,00, 0,00, 0,00, 0,00, -0,00, -0,02, 1,01
121, 0,00, 20483,72, -72221,99, 0,00, 0,00, 0,00, 0,00, 0,00, -0,00, -0,02, 1,01
122, 0,00, 13664,94, -76059,05, 0,00, 0,00, 0,00, 0,00, 0,00, 0,00, -0,02, 1,01
123, 0,00, -5623,50, -30737,40, 0,00, 0,00, 0,00, 0,00, 0,00, 0,00, -0,02, 1,01
124, 0,00, -11831,47, 3296,93, 0,00, 0,00, 0,00, 0,00, 0,00, 0,00, -0,02, 1,01
125, 0,00, 4469,70, -23044,40, 0,00, 0,00, 0,00, 0,00, 0,00, 0,00, -0,02, 1,01
126, 0,00, 20449,92, -71876,75, 0,00, 0,00, 0,00, 0,00, 0,00, 0,00, -0,02, 1,01
127, 0,00, 13856,63, -76311,78, 0,00, 0,00, 0,00, 0,00, 0,00, 0,00, -0,02, 1,01
128, 0,00, -5509,06, -31119,62, 0,00, 0,00, 0,00, 0,00, 0,00, 0,00, -0,02, 1,01
129, 0,00, -11942,13, 3387,00, 0,00, 0,00, 0,00, 0,00, 0,00, 0,00, -0,02, 1,01
130, 0,00, 4294,42, -22595,85, 0,00, 0,00, 0,00, 0,00, 0,00, 0,00, -0,02, 1,01
131, 0,00, 20358,10, -71460,89, 0,00, 0,00, 0,00, 0,00, 0,00, 0,00, -0,02, 1,01
132, 0,00, 13998,63, -76483,13, 0,00, 0,00, 0,00, 0,00, 0,00, 0,00, -0,02, 1,01
133, 0,00, -5326,29, -31575,79, 0,00, 0,00, 0,00, 0,00, 0,00, 0,00, -0,02, 1,01
134, 0,00, -11996,61, 3418,25, 0,00, 0,00, 0,00, 0,00, 0,00, 0,00, -0,02, 1,01
135, 0,00, 4068,87, -22024,04, 0,00, 0,00, 0,00, 0,00, 0,00, 0,00, -0,02, 1,01
136, 0,00, 20238,45, -71028,84, 0,00, 0,00, 0,00, 0,00, 0,00, 0,00, -0,02, 1,01
137, 0,00, 14099,28, -76734,84, 0,00, 0,00, 0,00, 0,00, 0,00, 0,01, -0,02, 1,00
138, 0,00, -5169,40, -32008,61, 0,00, 0,00, 0,00, 0,00, 0,00, 0,01, -0,02, 1,00
139, 0,00, -12037,96, 3282,11, 0,00, 0,00, 0,00, 0,00, 0,00, 0,01, -0,02, 1,00
140, 0,00, 3905,70, -21650,81, 0,00, 0,00, 0,00, 0,00, 0,00, 0,01, -0,02, 1,00
141, 0,00, 20193,59, -70676,19, 0,00, 0,00, 0,00, 0,00, 0,00, 0,01, -0,02, 1,00
142, 0,00, 14343,85, -77005,87, 0,00, 0,00, 0,00, 0,00, 0,00, 0,00, -0,01, 1,01
143, 0,00, -4996,60, -32540,58, 0,00, 0,00, 0,00, 0,00, 0,00, 0,00, -0,01, 1,01
144, 0,00, -12163,57, 3200,79, 0,00, 0,00, 0,00, 0,00, 0,00, 0,00, -0,01, 1,01
145, 0,00, 3709,58, -21312,19, 0,00, 0,00, 0,00, 0,00, 0,00, 0,00, -0,01, 1,01
146, 0,00, 20182,33, -70366,89, 0,00, 0,00, 0,00, 0,00, 0,00, 0,00, -0,01, 1,01
147, 0,00, 14498,41, -77275,48, 0,00, 0,00, 0,00, 0,00, 0,00, 0,00, -0,01, 1,01
148, 0,00, -4869,55, -33029,53, 0,00, 0,00, 0,00, 0,00, 0,00, 0,00, -0,01, 1,01
149, 0,00, -12250,57, 3168,94, 0,00, 0,00, 0,00, 0,00, 0,00, 0,00, -0,01, 1,01
150, 0,00, 3518,25, -20866,76, 0,00, 0,00, 0,00, 0,00, 0,00, 0,00, -0,01, 1,01
151, 0,00, 20027,47, -69941,29, 0,00, 0,00, 0,00, 0,00, 0,00, 0,00, -0,01, 1,01
152, 0,00, 14606,17, -77451,77, 0,00, 0,00, 0,00, 0,00, 0,00, 0,00, -0,01, 1,01
153, 0,00, -4711,68, -33479,11, 0,00, 0,00, 0,00, 0,00, 0,00, 0,00, -0,01, 1,01
154, 0,00, -12258,32, 3125,42, 0,00, 0,00, 0,00, 0,00, 0,00, 0,00, -0,01, 1,01
155, 0,00, 3353,63, -20499,59, 0,00, 0,00, 0,00, 0,00, 0,00, 0,00, -0,01, 1,01
156, 0,00, 19968,71, -69677,59, 0,00, 0,00, 0,00, 0,00, 0,00, 0,00, -0,01, 1,01
157, 0,00, 14779,71, -77767,05, 0,00, 0,00, 0,00, 0,00, 0,00, 0,00, -0,01, 1,01
158, 0,00, -4521,33, -34007,35, 0,00, 0,00, 0,00, 0,00, 0,00, 0,00, -0,01, 1,01
159, 0,00, -12285,21, 2969,56, 0,00, 0,00, 0,00, 0,00, 0,00, 0,00, -0,01, 1,01
160, 0,00, 3170,95, -20097,95, 0,00, 0,00, 0,00, 0,00, 0,00, 0,00, -0,01, 1,01
161, 0,00, 19855,08, -69276,97, 0,00, 0,00, 0,00, 0,00, 0,00, 0,00, -0,01, 1,01
162, 0,00, 14887,18, -77922,85, 0,00, 0,00, 0,00, 0,00, 0,00, 0,00, -0,01, 1,01
163, 0,00, -4353,27, -34553,16, 0,00, 0,00, 0,00, 0,00, 0,00, 0,00, -0,01, 1,01
164, 0,00, -12352,04, 2751,45, 0,00, 0,00, 0,00, 0,00, 0,00, 0,00, -0,01, 1,01
165, 0,00, 2947,35, -19655,10, 0,00, 0,00, 0,00, 0,00, 0,00, 0,00, -0,01, 1,01
166, 0,00, 19785,96, -68836,77, 0,00, 0,00, 0,00, 0,00, 0,00, 0,00, -0,01, 1,01
167, 0,00, 15108,46, -78211,66, 0,00, 0,00, 0,00, 0,00, 0,00, 0,00, -0,01, 1,01
168, 0,00, -4219,34, -34911,52, 0,00, 0,00, 0,00, 0,00, 0,00, 0,00, -0,01, 1,02
169, 0,00, -12411,72, 2829,53, 0,00, 0,00, 0,00, 0,00, 0,00, 0,00, -0,01, 1,02
170, 0,00, 2833,73, -19311,35, 0,00, 0,00, 0,00, 0,00, 0,00, 0,00, -0,01, 1,02
171, 0,00, 19752,26, -68527,79, 0,00, 0,00, 0,00, 0,00, 0,00, 0,00, -0,01, 1,02
172, 0,00, 15242,28, -78429,50, 0,00, 0,00, 0,00, 0,00, 0,00, 0,00, -0,01, 1,02
173, 0,00, -4037,98, -35545,84, 0,00, 0,00, 0,00, 0,00, 0,00, 0,01, -0,02, 1,01
174, 0,00, -12451,80, 2605,95, 0,00, 0,00, 0,00, 0,00, 0,00, 0,01, -0,02, 1,01
175, 0,00, 2621,66, -18987,56, 0,00, 0,00, 0,00, 0,00, 0,00, 0,01, -0,02, 1,01
176, 0,00, 19614,21, -68277,45, 0,00, 0,00, 0,00, 0,00, 0,00, 0,01, -0,02, 1,01
177, 0,00, 15376,03, -78724,88, 0,00, 0,00, 0,00, 0,00, 0,00, 0,01, -0,02, 1,01
178, 0,00, -3845,71, -36134,07, 0,00, 0,00, 0,00, 0,00, 0,00, 0,00, -0,02, 1,02
179, 0,00, -12483,05, 2381,73, 0,00, 0,00, 0,00, 0,00, 0,00, 0,00, -0,02, 1,02
180, 0,00, 2434,60, -18583,35, 0,00, 0,00, 0,00, 0,00, 0,00, 0,00, -0,02, 1,02
181, 0,00, 19545,46, -67855,83, 0,00, 0,00, 0,00, 0,00, 0,00, 0,00, -0,02, 1,02
182, 0,00, 15544,32, -78957,45, 0,00, 0,00, 0,00, 0,00, 0,00, 0,00, -0,02, 1,02
183, 0,00, -3711,28, -36526,46, 0,00, 0,00, 0,00, 0,00, 0,00, 0,00, -0,02, 1,01
184, 0,00, -12552,34, 2324,58, 0,00, 0,00, 0,00, 0,00, 0,00, 0,00, -0,02, 1,01
185, 0,00, 2260,79, -18272,82, 0,00, 0,00, 0,00, 0,00, 0,00, 0,00, -0,02, 1,01
186, 0,00, 19534,37, -67606,96, 0,00, 0,00, 0,00, 0,00, 0,00, 0,00, -0,02, 1,01
187, 0,00, 15776,00, -79332,35, 0,00, 0,00, 0,00, 0,00, 0,00, 0,00, -0,02, 1,01
188, 0,00, -3481,19, -37165,74, 0,00, 0,00, 0,00, 0,00, 0,00, 0,00, -0,02, 1,01
189, 0,00, -12538,59, 2087,47, 0,00, 0,00, 0,00, 0,00, 0,00, 0,00, -0,02, 1,01
190, 0,00, 2100,44, -17876,23, 0,00, 0,00, 0,00, 0,00, 0,00, 0,00, -0,02, 1,01
191, 0,00, 19393,96, -67267,10, 0,00, 0,00, 0,00, 0,00, 0,00, 0,00, -0,02, 1,01
192, 0,00, 15873,72, -79585,88, 0,00, 0,00, 0,00, 0,00, 0,00, 0,00, -0,02, 1,01
193, 0,00, -3502,90, -37353,70, 0,00, 0,00, 0,00, 0,00, 0,00, -0,00, -0,01, 1,01
194, 0,00, -12700,80, 2439,34, 0,00, 0,00, 0,00, 0,00, 0,00, -0,00, -0,01, 1,01
195, 0,00, 1904,01, -17427,68, 0,00, 0,00, 0,00, 0,00, 0,00, -0,00, -0,01, 1,01
196, 0,00, 19241,79, -66749,64, 0,00, 0,00, 0,00, 0,00, 0,00, -0,00, -0,01, 1,01
197, 0,00, 15936,55, -79537,59, 0,00, 0,00, 0,00, 0,00, 0,00, -0,00, -0,01, 1,01
198, 0,00, -3228,28, -37874,36, 0,00, 0,00, 0,00, 0,00, 0,00, 0,00, -0,01, 1,01
199, 0,00, -12650,66, 2141,14, 0,00, 0,00, 0,00, 0,00, 0,00, 0,00, -0,01, 1,01
200, 0,00, 1761,14, -17013,86, 0,00, 0,00, 0,00, 0,00, 0,00, 0,00, -0,01, 1,01
201, 0,00, 19245,86, -66525,02, 0,00, 0,00, 0,00, 0,00, 0,00, 0,00, -0,01, 1,01
202, 0,00, 16125,44, -79850,29, 0,00, 0,00, 0,00, 0,00, 0,00, 0,00, -0,01, 1,01
203, 0,00, -3104,03, -38304,34, 0,00, 0,00, 0,00, 0,00, 0,00, 0,00, -0,01, 1,01
204, 0,00, -12745,88, 2091,56, 0,00, 0,00, 0,00, 0,00, 0,00, 0,00, -0,01, 1,01
205, 0,00, 1556,78, -16662,82, 0,00, 0,00, 0,00, 0,00, 0,00, 0,00, -0,01, 1,01
206, 0,00, 19070,04, -66028,91, 0,00, 0,00, 0,00, 0,00, 0,00, 0,00, -0,01, 1,01
207, 0,00, 16206,82, -80061,06, 0,00, 0,00, 0,00, 0,00, 0,00, 0,00, -0,01, 1,01
208, 0,00, -2906,04, -38924,78, 0,00, 0,00, 0,00, 0,00, 0,00, 0,00, -0,01, 1,01
209, 0,00, -12721,05, 1898,53, 0,00, 0,00, 0,00, 0,00, 0,00, 0,00, -0,01, 1,01
210, 0,00, 1303,04, -16092,99, 0,00, 0,00, 0,00, 0,00, 0,00, 0,00, -0,01, 1,01
211, 0,00, 19033,54, -65482,14, 0,00, 0,00, 0,00, 0,00, 0,00, 0,00, -0,01, 1,01
212, 0,00, 16426,95, -80081,07, 0,00, 0,00, 0,00, 0,00, 0,00, 0,00, -0,01, 1,01
213, 0,00, -2772,58, -39162,18, 0,00, 0,00, 0,00, 0,00, 0,00, 0,00, -0,01, 1,01
214, 0,00, -12823,89, 1931,55, 0,00, 0,00, 0,00, 0,00, 0,00, 0,00, -0,01, 1,01
215, 0,00, 1142,76, -15554,76, 0,00, 0,00, 0,00, 0,00, 0,00, 0,00, -0,01, 1,01
216, 0,00, 18796,32, -64923,28, 0,00, 0,00, 0,00, 0,00, 0,00, 0,00, -0,01, 1,01
217, 0,00, 16388,99, -80187,10, 0,00, 0,00, 0,00, 0,00, 0,00, 0,00, -0,01, 1,01
218, 0,00, -2564,89, -39610,42, 0,00, 0,00, 0,00, 0,00, 0,00, 0,00, -0,01, 1,01
219, 0,00, -12713,72, 1844,06, 0,00, 0,00, 0,00, 0,00, 0,00, 0,00, -0,01, 1,01
220, 0,00, 1069,06, -15251,40, 0,00, 0,00, 0,00, 0,00, 0,00, 0,00, -0,01, 1,01
221, 0,00, 18813,64, -64608,30, 0,00, 0,00, 0,00, 0,00, 0,00, 0,00, -0,01, 1,01
222, 0,00, 16635,73, -80445,27, 0,00, 0,00, 0,00, 0,00, 0,00, 0,00, -0,01, 1,01
223, 0,00, -2469,85, -40155,94, 0,00, 0,00, 0,00, 0,00, 0,00, 0,00, -0,01, 1,01
224, 0,00, -12859,43, 1695,11, 0,00, 0,00, 0,00, 0,00, 0,00, 0,00, -0,01, 1,01
225, 0,00, 870,76, -14873,66, 0,00, 0,00, 0,00, 0,00, 0,00, 0,00, -0,01, 1,01
226, 0,00, 18727,70, -64140,21, 0,00, 0,00, 0,00, 0,00, 0,00, 0,00, -0,01, 1,01
227, 0,00, 16831,13, -80497,10, 0,00, 0,00, 0,00, 0,00, 0,00, 0,00, -0,01, 1,01
228, 0,00, -2204,57, -40626,42, 0,00, 0,00, 0,00, 0,00, 0,00, 0,00, -0,01, 1,01
229, 0,00, -12828,83, 1472,15, 0,00, 0,00, 0,00, 0,00, 0,00, 0,00, -0,01, 1,01
230, 0,00, 648,71, -14462,79, 0,00, 0,00, 0,00, 0,00, 0,00, 0,00, -0,01, 1,01
231, 0,00, 18599,20, -63835,02, 0,00, 0,00, 0,00, 0,00, 0,00, 0,00, -0,01, 1,01
232, 0,00, 16979,37, -80814,83, 0,00, 0,00, 0,00, 0,00, 0,00, 0,00, -0,01, 1,01
233, 0,00, -2048,94, -41151,26, 0,00, 0,00, 0,00, 0,00, 0,00, 0,00, -0,02, 1,01
234, 0,00, -12843,71, 1196,67, 0,00, 0,00, 0,00, 0,00, 0,00, 0,00, -0,02, 1,01
235, 0,00, 465,50, -14193,27, 0,00, 0,00, 0,00, 0,00, 0,00, 0,00, -0,02, 1,01
236, 0,00, 18484,96, -63418,11, 0,00, 0,00, 0,00, 0,00, 0,00, 0,00, -0,02, 1,01
237, 0,00, 17117,21, -80938,15, 0,00, 0,00, 0,00, 0,00, 0,00, 0,00, -0,02, 1,01
238, 0,00, -1795,27, -41761,89, 0,00, 0,00, 0,00, 0,00, 0,00, 0,00, -0,02, 1,01
239, 0,00, -12777,06, 723,73, 0,00, 0,00, 0,00, 0,00, 0,00, 0,00, -0,02, 1,01
240, 0,00, 279,98, -13946,35, 0,00, 0,00, 0,00, 0,00, 0,00, 0,00, -0,02, 1,01
241, 0,00, 18327,94, -63005,34, 0,00, 0,00, 0,00, 0,00, 0,00, 0,00, -0,02, 1,01
242, 0,00, 17230,71, -81151,73, 0,00, 0,00, 0,00, 0,00, 0,00, 0,00, -0,02, 1,01
243, 0,00, -1624,06, -42327,27, 0,00, 0,00, 0,00, 0,00, 0,00, 0,00, -0,01, 1,01
244, 0,00, -12795,46, 568,81, 0,00, 0,00, 0,00, 0,00, 0,00, 0,00, -0,01, 1,01
245, 0,00, 120,05, -13579,47, 0,00, 0,00, 0,00, 0,00, 0,00, 0,00, -0,01, 1,01
246, 0,00, 18229,72, -62708,91, 0,00, 0,00, 0,00, 0,00, 0,00, 0,00, -0,01, 1,01
247, 0,00, 17360,04, -81462,20, 0,00, 0,00, 0,00, 0,00, 0,00, 0,00, -0,01, 1,01
248, 0,00, -1488,31, -42883,77, 0,00, 0,00, 0,00, 0,00, 0,00, 0,00, -0,02, 1,00
249, 0,00, -12856,77, 385,77, 0,00, 0,00, 0,00, 0,00, 0,00, 0,00, -0,02, 1,00
250, 0,00, -56,95, -13270,21, 0,00, 0,00, 0,00, 0,00, 0,00, 0,00, -0,02, 1,00
251, 0,00, 18147,00, -62291,61, 0,00, 0,00, 0,00, 0,00, 0,00, 0,00, -0,02, 1,00
252, 0,00, 17541,87, -81572,15, 0,00, 0,00, 0,00, 0,00, 0,00, 0,00, -0,02, 1,00
253, 0,00, -1264,55, -43362,65, 0,00, 0,00, 0,00, 0,00, 0,00, 0,00, -0,02, 1,00
254, 0,00, -12806,54, 109,84, 0,00, 0,00, 0,00, 0,00, 0,00, 0,00, -0,02, 1,00
255, 0,00, -225,66, -12946,84, 0,00, 0,00, 0,00, 0,00, 0,00, 0,00, -0,02, 1,00
0, 0,00, 17968,54, -61907,51, 0,00, 0,00, 0,00, 0,00, 0,00, 0,00, -0,02, 1,00
1, 0,00, 17616,77, -81750,66, 0,00, 0,00, 0,00, 0,00, 0,00, 0,00, -0,02, 1,00
2, 0,00, -1105,49, -43812,99, 0,00, 0,00, 0,00, 0,00, 0,00, 0,00, -0,01, 1,00
3, 0,00, -12826,75, -54,92, 0,00, 0,00, 0,00, 0,00, 0,00, 0,00, -0,01, 1,00
4, 0,00, -434,94, -12527,73, 0,00, 0,00, 0,00, 0,00, 0,00, 0,00, -0,01, 1,00
5, 0,00, 17834,52, -61474,49, 0,00, 0,00, 0,00, 0,00, 0,00, 0,00, -0,01, 1,00
6, 0,00, 17715,03, -81820,91, 0,00, 0,00, 0,00, 0,00, 0,00, 0,00, -0,01, 1,00
7, 0,00, -852,52, -44384,46, 0,00, 0,00, 0,00, 0,00, 0,00, 0,00, -0,02, 1,00
8, 0,00, -12798,70, -299,71, 0,00, 0,00, 0,00, 0,00, 0,00, 0,00, -0,02, 1,00
9, 0,00, -635,86, -12131,68, 0,00, 0,00, 0,00, 0,00, 0,00, 0,00, -0,02, 1,00
10, 0,00, 17739,08, -60950,93, 0,00, 0,00, 0,00, 0,00, 0,00, 0,00, -0,02, 1,00
11, 0,00, 17887,79, -82001,10, 0,00, 0,00, 0,00, 0,00, 0,00, 0,00, -0,02, 1,00
12, 0,00, -696,12, -44954,77, 0,00, 0,00, 0,00, 0,00, 0,00, 0,00, -0,02, 1,00
13, 0,00, -12797,63, -640,18, 0,00, 0,00, 0,00, 0,00, 0,00, 0,00, -0,02, 1,00
14, 0,00, -782,49, -11846,20, 0,00, 0,00, 0,00, 0,00, 0,00, 0,00, -0,02, 1,00
15, 0,00, 17604,03, -60614,55, 0,00, 0,00, 0,00, 0,00, 0,00, 0,00, -0,02, 1,00
16, 0,00, 17960,56, -82180,92, 0,00, 0,00, 0,00, 0,00, 0,00, 0,00, -0,02, 1,00
17, 0,00, -550,93, -45390,56, 0,00, 0,00, 0,00, 0,00, 0,00, 0,00, -0,01, 1,01
18, 0,00, -12811,21, -792,15, 0,00, 0,00, 0,00, 0,00, 0,00, 0,00, -0,01, 1,01
19, 0,00, -957,73, -11451,85, 0,00, 0,00, 0,00, 0,00, 0,00, 0,00, -0,01, 1,01
20, 0,00, 17520,21, -60147,07, 0,00, 0,00, 0,00, 0,00, 0,00, 0,00, -0,01, 1,01
21, 0,00, 18105,70, -82175,90, 0,00, 0,00, 0,00, 0,00, 0,00, 0,00, -0,01, 1,01
22, 0,00, -352,49, -45818,48, 0,00, 0,00, 0,00, 0,00, 0,00, 0,00, -0,01, 1,01
23, 0,00, -12759,98, -1159,23, 0,00, 0,00, 0,00, 0,00, 0,00, 0,00, -0,01, 1,01
24, 0,00, -1114,48, -11269,55, 0,00, 0,00, 0,00, 0,00, 0,00, 0,00, -0,01, 1,01
25, 0,00, 17369,29, -59792,05, 0,00, 0,00, 0,00, 0,00, 0,00, 0,00, -0,01, 1,01
26, 0,00, 18219,53, -82462,58, 0,00, 0,00, 0,00, 0,00, 0,00, 0,00, -0,01, 1,01
27, 0,00, -164,49, -46323,48, 0,00, 0,00, 0,00, 0,00, 0,00, -0,00, -0,01, 1,00
28, 0,00, -12723,28, -1282,74, 0,00, 0,00, 0,00, 0,00, 0,00, -0,00, -0,01, 1,00
29, 0,00, -1303,24, -10904,16, 0,00, 0,00, 0,00, 0,00, 0,00, -0,00, -0,01, 1,00
30, 0,00, 17284,92, -59397,84, 0,00, 0,00, 0,00, 0,00, 0,00, -0,00, -0,01, 1,00
31, 0,00, 18382,01, -82611,59, 0,00, 0,00, 0,00, 0,00, 0,00, -0,00, -0,01, 1,00
32, 0,00, 3,06, -46877,57, 0,00, 0,00, 0,00, 0,00, 0,00, 0,00, -0,01, 1,01
33, 0,00, -12789,24, -1572,76, 0,00, 0,00, 0,00, 0,00, 0,00, 0,00, -0,01, 1,01
34, 0,00, -1432,88, -10650,63, 0,00, 0,00, 0,00, 0,00, 0,00, 0,00, -0,01, 1,01
35, 0,00, 17235,14, -59048,99, 0,00, 0,00, 0,00, 0,00, 0,00, 0,00, -0,01, 1,01
36, 0,00, 18532,37, -82750,42, 0,00, 0,00, 0,00, 0,00, 0,00, 0,00, -0,01, 1,01
37, 0,00, 243,10, -47462,63, 0,00, 0,00, 0,00, 0,00, 0,00, 0,01, -0,01, 1,01
38, 0,00, -12702,27, -1955,26, 0,00, 0,00, 0,00, 0,00, 0,00, 0,01, -0,01, 1,01
39, 0,00, -1621,08, -10388,29, 0,00, 0,00, 0,00, 0,00, 0,00, 0,01, -0,01, 1,01
40, 0,00, 17062,70, -58717,52, 0,00, 0,00, 0,00, 0,00, 0,00, 0,01, -0,01, 1,01
41, 0,00, 18665,00, -82978,88, 0,00, 0,00, 0,00, 0,00, 0,00, 0,01, -0,01, 1,01
42, 0,00, 367,49, -47823,95, 0,00, 0,00, 0,00, 0,00, 0,00, 0,00, -0,02, 1,01
43, 0,00, -12819,22, -1864,29, 0,00, 0,00, 0,00, 0,00, 0,00, 0,00, -0,02, 1,01
44, 0,00, -1812,82, -10033,05, 0,00, 0,00, 0,00, 0,00, 0,00, 0,00, -0,02, 1,01
45, 0,00, 16910,12, -58297,30, 0,00, 0,00, 0,00, 0,00, 0,00, 0,00, -0,02, 1,01
46, 0,00, 18688,38, -82955,79, 0,00, 0,00, 0,00, 0,00, 0,00, 0,00, -0,02, 1,01
47, 0,00, 522,67, -48222,10, 0,00, 0,00, 0,00, 0,00, 0,00, 0,00, -0,02, 1,00
48, 0,00, -12765,51, -2194,07, 0,00, 0,00, 0,00, 0,00, 0,00, 0,00, -0,02, 1,00
49, 0,00, -2023,91, -9627,81, 0,00, 0,00, 0,00, 0,00, 0,00, 0,00, -0,02, 1,00
50, 0,00, 16767,90, -57753,13, 0,00, 0,00, 0,00, 0,00, 0,00, 0,00, -0,02, 1,00
51, 0,00, 18777,32, -82832,26, 0,00, 0,00, 0,00, 0,00, 0,00, 0,00, -0,02, 1,00
52, 0,00, 629,29, -48397,18, 0,00, 0,00, 0,00, 0,00, 0,00, 0,00, -0,02, 1,01
53, 0,00, -12822,21, -2080,01, 0,00, 0,00, 0,00, 0,00, 0,00, 0,00, -0,02, 1,01
54, 0,00, -2163,54, -9197,65, 0,00, 0,00, 0,00, 0,00, 0,00, 0,00, -0,02, 1,01
55, 0,00, 16649,46, -57152,36, 0,00, 0,00, 0,00, 0,00, 0,00, 0,00, -0,02, 1,01
56, 0,00, 18933,51, -82936,59, 0,00, 0,00, 0,00, 0,00, 0,00, 0,00, -0,02, 1,01
57, 0,00, 921,54, -49078,42, 0,00, 0,00, 0,00, 0,00, 0,00, 0,00, -0,01, 1,01
58, 0,00, -12665,35, -2674,79, 0,00, 0,00, 0,00, 0,00, 0,00, 0,00, -0,01, 1,01
59, 0,00, -2354,24, -8861,21, 0,00, 0,00, 0,00, 0,00, 0,00, 0,00, -0,01, 1,01
60, 0,00, 16505,87, -56649,64, 0,00, 0,00, 0,00, 0,00, 0,00, 0,00, -0,01, 1,01
61, 0,00, 19033,29, -82919,80, 0,00, 0,00, 0,00, 0,00, 0,00, 0,00, -0,01, 1,01
62, 0,00, 1003,91, -49346,88, 0,00, 0,00, 0,00, 0,00, 0,00, 0,00, -0,01, 1,01
63, 0,00, -12810,23, -2543,27, 0,00, 0,00, 0,00, 0,00, 0,00, 0,00, -0,01, 1,01
64, 0,00, -2596,24, -8270,19, 0,00, 0,00, 0,00, 0,00, 0,00, 0,00, -0,01, 1,01
65, 0,00, 16295,49, -55967,09, 0,00, 0,00, 0,00, 0,00, 0,00, 0,00, -0,01, 1,01
66, 0,00, 19095,45, -82837,22, 0,00, 0,00, 0,00, 0,00, 0,00, 0,00, -0,01, 1,01
67, 0,00, 1191,97, -49737,43, 0,00, 0,00, 0,00, 0,00, 0,00, -0,00, -0,01, 1,01
68, 0,00, -12741,59, -2901,12, 0,00, 0,00, 0,00, 0,00, 0,00, -0,00, -0,01, 1,01
69, 0,00, -2792,34, -8019,72, 0,00, 0,00, 0,00, 0,00, 0,00, -0,00, -0,01, 1,01
70, 0,00, 16146,94, -55716,62, 0,00, 0,00, 0,00, 0,00, 0,00, -0,00, -0,01, 1,01
71, 0,00, 19156,25, -82850,43, 0,00, 0,00, 0,00, 0,00, 0,00, -0,00, -0,01, 1,01
72, 0,00, 1375,48, -50140,57, 0,00, 0,00, 0,00, 0,00, 0,00, 0,00, -0,01, 1,01
73, 0,00, -12723,51, -3130,83, 0,00, 0,00, 0,00, 0,00, 0,00, 0,00, -0,01, 1,01
74, 0,00, -2958,34, -7605,72, 0,00, 0,00, 0,00, 0,00, 0,00, 0,00, -0,01, 1,01
75, 0,00, 15971,17, -54954,62, 0,00, 0,00, 0,00, 0,00, 0,00, 0,00, -0,01, 1,01
76, 0,00, 19260,01, -82858,98, 0,00, 0,00, 0,00, 0,00, 0,00, 0,00, -0,01, 1,01
77, 0,00, 1579,44, -50602,16, 0,00, 0,00, 0,00, 0,00, 0,00, 0,00, -0,01, 1,01
78, 0,00, -12643,08, -3551,33, 0,00, 0,00, 0,00, 0,00, 0,00, 0,00, -0,01, 1,01
79, 0,00, -3169,92, -7242,70, 0,00, 0,00, 0,00, 0,00, 0,00, 0,00, -0,01, 1,01
80, 0,00, 15852,06, -54436,98, 0,00, 0,00, 0,00, 0,00, 0,00, 0,00, -0,01, 1,01
81, 0,00, 19371,68, -82806,48, 0,00, 0,00, 0,00, 0,00, 0,00, 0,00, -0,01, 1,01
82, 0,00, 1680,45, -50883,21, 0,00, 0,00, 0,00, 0,00, 0,00, 0,01, -0,02, 1,01
83, 0,00, -12697,42, -3599,35, 0,00, 0,00, 0,00, 0,00, 0,00, 0,01, -0,02, 1,01
84, 0,00, -3354,01, -6895,89, 0,00, 0,00, 0,00, 0,00, 0,00, 0,01, -0,02, 1,01
85, 0,00, 15700,38, -54003,46, 0,00, 0,00, 0,00, 0,00, 0,00, 0,01, -0,02, 1,01
86, 0,00, 19492,87, -82815,80, 0,00, 0,00, 0,00, 0,00, 0,00, 0,01, -0,02, 1,01
87, 0,00, 1910,83, -51397,79, 0,00, 0,00, 0,00, 0,00, 0,00, 0,00, -0,02, 1,01
88, 0,00, -12629,34, -3924,54, 0,00, 0,00, 0,00, 0,00, 0,00, 0,00, -0,02, 1,01
89, 0,00, -3520,78, -6485,76, 0,00, 0,00, 0,00, 0,00, 0,00, 0,00, -0,02, 1,01
90, 0,00, 15552,32, -53478,07, 0,00, 0,00, 0,00, 0,00, 0,00, 0,00, -0,02, 1,01
91, 0,00, 19522,55, -82794,84, 0,00, 0,00, 0,00, 0,00, 0,00, 0,00, -0,02, 1,01
92, 0,00, 2042,99, -51722,56, 0,00, 0,00, 0,00, 0,00, 0,00, 0,00, -0,01, 1,01
93, 0,00, -12619,30, -4073,96, 0,00, 0,00, 0,00, 0,00, 0,00, 0,00, -0,01, 1,01
94, 0,00, -3708,13, -6064,10, 0,00, 0,00, 0,00, 0,00, 0,00, 0,00, -0,01, 1,01
95, 0,00, 15377,55, -52867,04, 0,00, 0,00, 0,00, 0,00, 0,00, 0,00, -0,01, 1,01
96, 0,00, 19578,36, -82661,09, 0,00, 0,00, 0,00, 0,00, 0,00, 0,00, -0,01, 1,01
97, 0,00, 2213,94, -52072,32, 0,00, 0,00, 0,00, 0,00, 0,00, 0,00, -0,01, 1,01
98, 0,00, -12594,96, -4234,94, 0,00, 0,00, 0,00, 0,00, 0,00, 0,00, -0,01, 1,01
99, 0,00, -3911,04, -5700,39, 0,00, 0,00, 0,00, 0,00, 0,00, 0,00, -0,01, 1,01
100, 0,00, 15222,72, -52398,88, 0,00, 0,00, 0,00, 0,00, 0,00, 0,00, -0,01, 1,01
101, 0,00, 19708,74, -82794,59, 0,00, 0,00, 0,00, 0,00, 0,00, 0,00, -0,01, 1,01
102, 0,00, 2422,77, -52600,80, 0,00, 0,00, 0,00, 0,00, 0,00, -0,00, -0,02, 1,01
103, 0,00, -12473,73, -4663,74, 0,00, 0,00, 0,00, 0,00, 0,00, -0,00, -0,02, 1,01
104, 0,00, -3998,41, -5549,13, 0,00, 0,00, 0,00, 0,00, 0,00, -0,00, -0,02, 1,01
105, 0,00, 15102,02, -51996,75, 0,00, 0,00, 0,00, 0,00, 0,00, -0,00, -0,02, 1,01
106, 0,00, 19789,29, -82795,98, 0,00, 0,00, 0,00, 0,00, 0,00, -0,00, -0,02, 1,01
107, 0,00, 2535,05, -53026,81, 0,00, 0,00, 0,00, 0,00, 0,00, 0,00, -0,02, 1,01
108, 0,00, -12485,64, -5025,72, 0,00, 0,00, 0,00, 0,00, 0,00, 0,00, -0,02, 1,01
109, 0,00, -4183,80, -5237,06, 0,00, 0,00, 0,00, 0,00, 0,00, 0,00, -0,02, 1,01
110, 0,00, 15010,42, -51538,43, 0,00, 0,00, 0,00, 0,00, 0,00, 0,00, -0,02, 1,01
111, 0,00, 19920,57, -82827,80, 0,00, 0,00, 0,00, 0,00, 0,00, 0,00, -0,02, 1,01
112, 0,00, 2824,77, -53548,70, 0,00, 0,00, 0,00, 0,00, 0,00, 0,00, -0,02, 1,00
113, 0,00, -12317,29, -5507,89, 0,00, 0,00, 0,00, 0,00, 0,00, 0,00, -0,02, 1,00
114, 0,00, -4330,07, -5029,48, 0,00, 0,00, 0,00, 0,00, 0,00, 0,00, -0,02, 1,00
115, 0,00, 14803,18, -51101,81, 0,00, 0,00, 0,00, 0,00, 0,00, 0,00, -0,02, 1,00
116, 0,00, 19959,35, -82793,81, 0,00, 0,00, 0,00, 0,00, 0,00, 0,00, -0,02, 1,00
117, 0,00, 2994,31, -54001,68, 0,00, 0,00, 0,00, 0,00, 0,00, 0,00, -0,02, 1,01
118, 0,00, -12295,36, -5758,75, 0,00, 0,00, 0,00, 0,00, 0,00, 0,00, -0,02, 1,01
119, 0,00, -4484,25, -4706,88, 0,00, 0,00, 0,00, 0,00, 0,00, 0,00, -0,02, 1,01
120, 0,00, 14676,45, -50586,98, 0,00, 0,00, 0,00, 0,00, 0,00, 0,00, -0,02, 1,01
121, 0,00, 20029,49, -82721,88, 0,00, 0,00, 0,00, 0,00, 0,00, 0,00, -0,02, 1,01
122, 0,00, 3202,47, -54414,23, 0,00, 0,00, 0,00, 0,00, 0,00, 0,00, -0,02, 1,01
123, 0,00, -12207,58, -6135,11, 0,00, 0,00, 0,00, 0,00, 0,00, 0,00, -0,02, 1,01
124, 0,00, -4681,01, -4482,44, 0,00, 0,00, 0,00, 0,00, 0,00, 0,00, -0,02, 1,01
125, 0,00, 14467,17, -50206,98, 0,00, 0,00, 0,00, 0,00, 0,00, 0,00, -0,02, 1,01
126, 0,00, 20118,96, -82907,52, 0,00, 0,00, 0,00, 0,00, 0,00, 0,00, -0,02, 1,01
127, 0,00, 3423,19, -55020,16, 0,00, 0,00, 0,00, 0,00, 0,00, 0,00, -0,02, 1,01
128, 0,00, -12149,49, -6504,89, 0,00, 0,00, 0,00, 0,00, 0,00, 0,00, -0,02, 1,01
129, 0,00, -4769,39, -4261,92, 0,00, 0,00, 0,00, 0,00, 0,00, 0,00, -0,02, 1,01
130, 0,00, 14419,98, -49810,86, 0,00, 0,00, 0,00, 0,00, 0,00, 0,00, -0,02, 1,01
131, 0,00, 20237,47, -82941,30, 0,00, 0,00, 0,00, 0,00, 0,00, 0,00, -0,02, 1,01
132, 0,00, 3599,88, -55466,90, 0,00, 0,00, 0,00, 0,00, 0,00, 0,00, -0,02, 1,01
133, 0,00, -12141,58, -6829,96, 0,00, 0,00, 0,00, 0,00, 0,00, 0,00, -0,02, 1,01
134, 0,00, -5031,87, -3980,38, 0,00, 0,00, 0,00, 0,00, 0,00, 0,00, -0,02, 1,01
135, 0,00, 14157,64, -49254,26, 0,00, 0,00, 0,00, 0,00, 0,00, 0,00, -0,02, 1,01
136, 0,00, 20284,59, -82790,81, 0,00, 0,00, 0,00, 0,00, 0,00, 0,00, -0,02, 1,01
137, 0,00, 3807,82, -55764,05, 0,00, 0,00, 0,00, 0,00, 0,00, 0,00, -0,02, 1,01
138, 0,00, -12019,16, -7066,37, 0,00, 0,00, 0,00, 0,00, 0,00, 0,00, -0,02, 1,00
139, 0,00, -5126,73, -3650,67, 0,00, 0,00, 0,00, 0,00, 0,00, 0,00, -0,02, 1,00
140, 0,00, 14113,29, -48827,92, 0,00, 0,00, 0,00, 0,00, 0,00, 0,00, -0,02, 1,00
141, 0,00, 20400,26, -82897,95, 0,00, 0,00, 0,00, 0,00, 0,00, 0,00, -0,02, 1,00
142, 0,00, 3938,96, -56208,51, 0,00, 0,00, 0,00, 0,00, 0,00, 0,00, -0,02, 1,00
143, 0,00, -12073,56, -7099,50, 0,00, 0,00, 0,00, 0,00, 0,00, 0,00, -0,02, 1,01
144, 0,00, -5236,39, -3413,20, 0,00, 0,00, 0,00, 0,00, 0,00, 0,00, -0,02, 1,01
145, 0,00, 13960,25, -48461,17, 0,00, 0,00, 0,00, 0,00, 0,00, 0,00, -0,02, 1,01
146, 0,00, 20469,68, -82934,42, 0,00, 0,00, 0,00, 0,00, 0,00, 0,00, -0,02, 1,01
147, 0,00, 4123,76, -56752,11, 0,00, 0,00, 0,00, 0,00, 0,00, 0,00, -0,02, 1,01
148, 0,00, -11992,85, -7705,70, 0,00, 0,00, 0,00, 0,00, 0,00, 0,00, -0,01, 1,01
149, 0,00, -5512,59, -3033,62, 0,00, 0,00, 0,00, 0,00, 0,00, 0,00, -0,01, 1,01
150, 0,00, 13709,42, -47800,28, 0,00, 0,00, 0,00, 0,00, 0,00, 0,00, -0,01, 1,01
151, 0,00, 20457,21, -82634,44, 0,00, 0,00, 0,00, 0,00, 0,00, 0,00, -0,01, 1,01
152, 0,00, 4282,62, -56855,77, 0,00, 0,00, 0,00, 0,00, 0,00, 0,00, -0,01, 1,01
153, 0,00, -11914,02, -7716,92, 0,00, 0,00, 0,00, 0,00, 0,00, 0,00, -0,01, 1,01
154, 0,00, -5576,76, -2850,41, 0,00, 0,00, 0,00, 0,00, 0,00, 0,00, -0,01, 1,01
155, 0,00, 13637,83, -47420,90, 0,00, 0,00, 0,00, 0,00, 0,00, 0,00, -0,01, 1,01
156, 0,00, 20545,61, -82654,16, 0,00, 0,00, 0,00, 0,00, 0,00, 0,00, -0,01, 1,01
157, 0,00, 4488,70, -57428,16, 0,00, 0,00, 0,00, 0,00, 0,00, 0,00, -0,01, 1,01
158, 0,00, -11782,63, -8294,20, 0,00, 0,00, 0,00, 0,00, 0,00, 0,00, -0,01, 1,01
159, 0,00, -5683,24, -2728,34, 0,00, 0,00, 0,00, 0,00, 0,00, 0,00, -0,01, 1,01
160, 0,00, 13543,41, -47161,17, 0,00, 0,00, 0,00, 0,00, 0,00, 0,00, -0,01, 1,01
161, 0,00, 20669,46, -82812,02, 0,00, 0,00, 0,00, 0,00, 0,00, 0,00, -0,01, 1,01
162, 0,00, 4633,32, -57931,36, 0,00, 0,00, 0,00, 0,00, 0,00, 0,00, -0,01, 1,01
163, 0,00, -11867,46, -8463,20, 0,00, 0,00, 0,00, 0,00, 0,00, 0,00, -0,01, 1,01
164, 0,00, -5894,29, -2427,11, 0,00, 0,00, 0,00, 0,00, 0,00, 0,00, -0,01, 1,01
165, 0,00, 13364,24, -46631,53, 0,00, 0,00, 0,00, 0,00, 0,00, 0,00, -0,01, 1,01
166, 0,00, 20740,23, -82667,12, 0,00, 0,00, 0,00, 0,00, 0,00, 0,00, -0,01, 1,01
167, 0,00, 4858,91, -58321,55, 0,00, 0,00, 0,00, 0,00, 0,00, 0,00, -0,01, 1,01
168, 0,00, -11707,17, -8968,82, 0,00, 0,00, 0,00, 0,00, 0,00, 0,00, -0,01, 1,02
169, 0,00, -6020,69, -2205,56, 0,00, 0,00, 0,00, 0,00, 0,00, 0,00, -0,01, 1,02
170, 0,00, 13238,67, -46240,01, 0,00, 0,00, 0,00, 0,00, 0,00, 0,00, -0,01, 1,02
171, 0,00, 20778,49, -82669,78, 0,00, 0,00, 0,00, 0,00, 0,00, 0,00, -0,01, 1,02
172, 0,00, 5026,95, -58766,33, 0,00, 0,00, 0,00, 0,00, 0,00, 0,00, -0,01, 1,02
173, 0,00, -11666,81, -9327,14, 0,00, 0,00, 0,00, 0,00, 0,00, 0,00, -0,01, 1,01
174, 0,00, -6193,60, -2089,42, 0,00, 0,00, 0,00, 0,00, 0,00, 0,00, -0,01, 1,01
175, 0,00, 12965,42, -45697,43, 0,00, 0,00, 0,00, 0,00, 0,00, 0,00, -0,01, 1,01
176, 0,00, 20734,19, -82459,65, 0,00, 0,00, 0,00, 0,00, 0,00, 0,00, -0,01, 1,01
177, 0,00, 5194,61, -59158,38, 0,00, 0,00, 0,00, 0,00, 0,00, 0,00, -0,01, 1,01
178, 0,00, -11532,81, -9796,21, 0,00, 0,00, 0,00, 0,00, 0,00, 0,00, -0,01, 1,01
179, 0,00, -6402,90, -1692,27, 0,00, 0,00, 0,00, 0,00, 0,00, 0,00, -0,01, 1,01
180, 0,00, 12833,95, -45033,85, 0,00, 0,00, 0,00, 0,00, 0,00, 0,00, -0,01, 1,01
181, 0,00, 20845,88, -82250,44, 0,00, 0,00, 0,00, 0,00, 0,00, 0,00, -0,01, 1,01
182, 0,00, 5313,97, -59372,64, 0,00, 0,00, 0,00, 0,00, 0,00, 0,00, -0,01, 1,01
183, 0,00, -11491,79, -9894,71, 0,00, 0,00, 0,00, 0,00, 0,00, 0,00, -0,01, 1,01
184, 0,00, -6523,65, -1402,30, 0,00, 0,00, 0,00, 0,00, 0,00, 0,00, -0,01, 1,01
185, 0,00, 12700,10, -44575,86, 0,00, 0,00, 0,00, 0,00, 0,00, 0,00, -0,01, 1,01
186, 0,00, 20895,59, -82206,41, 0,00, 0,00, 0,00, 0,00, 0,00, 0,00, -0,01, 1,01
187, 0,00, 5562,46, -59850,62, 0,00, 0,00, 0,00, 0,00, 0,00, 0,00, -0,01, 1,01
188, 0,00, -11350,95, -10486,72, 0,00, 0,00, 0,00, 0,00, 0,00, 0,00, -0,01, 1,02
189, 0,00, -6671,28, -1301,72, 0,00, 0,00, 0,00, 0,00, 0,00, 0,00, -0,01, 1,02
190, 0,00, 12496,99, -44211,73, 0,00, 0,00, 0,00, 0,00, 0,00, 0,00, -0,01, 1,02
191, 0,00, 20947,29, -82200,51, 0,00, 0,00, 0,00, 0,00, 0,00, 0,00, -0,01, 1,02
192, 0,00, 5736,13, -60296,33, 0,00, 0,00, 0,00, 0,00, 0,00, 0,00, -0,01, 1,02
193, 0,00, -11270,69, -10880,61, 0,00, 0,00, 0,00, 0,00, 0,00, 0,01, -0,01, 1,01
194, 0,00, -6819,36, -1068,70, 0,00, 0,00, 0,00, 0,00, 0,00, 0,01, -0,01, 1,01
195, 0,00, 12311,36, -43722,36, 0,00, 0,00, 0,00, 0,00, 0,00, 0,01, -0,01, 1,01
196, 0,00, 20932,16, -81990,45, 0,00, 0,00, 0,00, 0,00, 0,00, 0,01, -0,01, 1,01
197, 0,00, 5916,64, -60616,61, 0,00, 0,00, 0,00, 0,00, 0,00, 0,01, -0,01, 1,01
198, 0,00, -11188,25, -11257,66, 0,00, 0,00, 0,00, 0,00, 0,00, 0,01, -0,01, 1,01
199, 0,00, -6942,76, -859,89, 0,00, 0,00, 0,00, 0,00, 0,00, 0,01, -0,01, 1,01
200, 0,00, 12159,33, -43189,27, 0,00, 0,00, 0,00, 0,00, 0,00, 0,01, -0,01, 1,01
201, 0,00, 20991,66, -81889,13, 0,00, 0,00, 0,00, 0,00, 0,00, 0,01, -0,01, 1,01
202, 0,00, 6126,61, -61021,87, 0,00, 0,00, 0,00, 0,00, 0,00, 0,01, -0,01, 1,01
203, 0,00, -11074,26, -11553,88, 0,00, 0,00, 0,00, 0,00, 0,00, 0,00, -0,01, 1,00
204, 0,00, -7089,88, -648,85, 0,00, 0,00, 0,00, 0,00, 0,00, 0,00, -0,01, 1,00
205, 0,00, 12006,75, -42757,05, 0,00, 0,00, 0,00, 0,00, 0,00, 0,00, -0,01, 1,00
206, 0,00, 21009,81, -81737,58, 0,00, 0,00, 0,00, 0,00, 0,00, 0,00, -0,01, 1,00
207, 0,00, 6259,38, -61426,46, 0,00, 0,00, 0,00, 0,00, 0,00, 0,00, -0,01, 1,00
208, 0,00, -11035,75, -11965,49, 0,00, 0,00, 0,00, 0,00, 0,00, 0,00, -0,01, 1,01
209, 0,00, -7250,75, -383,76, 0,00, 0,00, 0,00, 0,00, 0,00, 0,00, -0,01, 1,01
210, 0,00, 11829,73, -42167,48, 0,00, 0,00, 0,00, 0,00, 0,00, 0,00, -0,01, 1,01
211, 0,00, 21022,06, -81512,16, 0,00, 0,00, 0,00, 0,00, 0,00, 0,00, -0,01, 1,01
212, 0,00, 6371,99, -61615,29, 0,00, 0,00, 0,00, 0,00, 0,00, 0,00, -0,01, 1,01
213, 0,00, -11002,85, -12125,35, 0,00, 0,00, 0,00, 0,00, 0,00, -0,00, -0,01, 1,01
214, 0,00, -7433,90, -28,25, 0,00, 0,00, 0,00, 0,00, 0,00, -0,00, -0,01, 1,01
215, 0,00, 11632,85, -41568,72, 0,00, 0,00, 0,00, 0,00, 0,00, -0,00, -0,01, 1,01
216, 0,00, 21038,65, -81351,72, 0,00, 0,00, 0,00, 0,00, 0,00, -0,00, -0,01, 1,01
217, 0,00, 6579,86, -62001,88, 0,00, 0,00, 0,00, 0,00, 0,00, -0,00, -0,01, 1,01
218, 0,00, -10826,67, -12629,27, 0,00, 0,00, 0,00, 0,00, 0,00, -0,00, -0,02, 1,01
219, 0,00, -7508,40, 34,22, 0,00, 0,00, 0,00, 0,00, 0,00, -0,00, -0,02, 1,01
220, 0,00, 11518,81, -41289,50, 0,00, 0,00, 0,00, 0,00, 0,00, -0,00, -0,02, 1,01
221, 0,00, 21122,26, -81400,38, 0,00, 0,00, 0,00, 0,00, 0,00, -0,00, -0,02, 1,01
222, 0,00, 6804,21, -62569,95, 0,00, 0,00, 0,00, 0,00, 0,00, -0,00, -0,02, 1,01
223, 0,00, -10687,08, -13233,28, 0,00, 0,00, 0,00, 0,00, 0,00, -0,00, -0,02, 1,01
224, 0,00, -7655,81, 36,79, 0,00, 0,00, 0,00, 0,00, 0,00, -0,00, -0,02, 1,01
225, 0,00, 11310,54, -40922,51, 0,00, 0,00, 0,00, 0,00, 0,00, -0,00, -0,02, 1,01
226, 0,00, 21126,64, -81277,76, 0,00, 0,00, 0,00, 0,00, 0,00, -0,00, -0,02, 1,01
227, 0,00, 6971,24, -63012,96, 0,00, 0,00, 0,00, 0,00, 0,00, -0,00, -0,02, 1,01
228, 0,00, -10652,35, -13511,76, 0,00, 0,00, 0,00, 0,00, 0,00, 0,00, -0,01, 1,01
229, 0,00, -7903,35, 438,12, 0,00, 0,00, 0,00, 0,00, 0,00, 0,00, -0,01, 1,01
230, 0,00, 11085,86, -40269,66, 0,00, 0,00, 0,00, 0,00, 0,00, 0,00, -0,01, 1,01
231, 0,00, 21224,66, -81098,34, 0,00, 0,00, 0,00, 0,00, 0,00, 0,00, -0,01, 1,01
232, 0,00, 7171,96, -63290,91, 0,00, 0,00, 0,00, 0,00, 0,00, 0,00, -0,01, 1,01
233, 0,00, -10523,42, -13901,00, 0,00, 0,00, 0,00, 0,00, 0,00, 0,00, -0,01, 1,02
234, 0,00, -7906,86, 486,73, 0,00, 0,00, 0,00, 0,00, 0,00, 0,00, -0,01, 1,02
235, 0,00, 11056,83, -40036,15, 0,00, 0,00, 0,00, 0,00, 0,00, 0,00, -0,01, 1,02
236, 0,00, 21234,67, -81171,34, 0,00, 0,00, 0,00, 0,00, 0,00, 0,00, -0,01, 1,02
237, 0,00, 7351,69, -63968,05, 0,00, 0,00, 0,00, 0,00, 0,00, 0,00, -0,01, 1,02
238, 0,00, -10371,46, -14634,36, 0,00, 0,00, 0,00, 0,00, 0,00, -0,00, -0,01, 1,02
239, 0,00, -7999,11, 332,95, 0,00, 0,00, 0,00, 0,00, 0,00, -0,00, -0,01, 1,02
240, 0,00, 10927,90, -39878,62, 0,00, 0,00, 0,00, 0,00, 0,00, -0,00, -0,01, 1,02
241, 0,00, 21325,73, -81277,60, 0,00, 0,00, 0,00, 0,00, 0,00, -0,00, -0,01, 1,02
242, 0,00, 7573,91, -64567,23, 0,00, 0,00, 0,00, 0,00, 0,00, -0,00, -0,01, 1,02
243, 0,00, -10308,89, -15045,76, 0,00, 0,00, 0,00, 0,00, 0,00, -0,00, -0,01, 1,01
244, 0,00, -8131,70, 495,63, 0,00, 0,00, 0,00, 0,00, 0,00, -0,00, -0,01, 1,01
245, 0,00, 10770,25, -39387,17, 0,00, 0,00, 0,00, 0,00, 0,00, -0,00, -0,01, 1,01
246, 0,00, 21308,68, -81094,54, 0,00, 0,00, 0,00, 0,00, 0,00, -0,00, -0,01, 1,01
247, 0,00, 7702,37, -64996,90, 0,00, 0,00, 0,00, 0,00, 0,00, -0,00, -0,01, 1,01
248, 0,00, -10290,05, -15477,73, 0,00, 0,00, 0,00, 0,00, 0,00, 0,00, -0,02, 1,01
249, 0,00, -8230,56, 619,99, 0,00, 0,00, 0,00, 0,00, 0,00, 0,00, -0,02, 1,01
250, 0,00, 10683,82, -39061,59, 0,00, 0,00, 0,00, 0,00, 0,00, 0,00, -0,02, 1,01
251, 0,00, 21388,50, -81159,31, 0,00, 0,00, 0,00, 0,00, 0,00, 0,00, -0,02, 1,01
252, 0,00, 7921,97, -65443,47, 0,00, 0,00, 0,00, 0,00, 0,00, 0,00, -0,02, 1,01
253, 0,00, -10122,88, -15922,06, 0,00, 0,00, 0,00, 0,00, 0,00, 0,00, -0,01, 1,01
254, 0,00, -8416,59, 604,46, 0,00, 0,00, 0,00, 0,00, 0,00, 0,00, -0,01, 1,01
255, 0,00, 10426,08, -38724,53, 0,00, 0,00, 0,00, 0,00, 0,00, 0,00, -0,01, 1,01
0, 0,00, 21410,76, -81101,67, 0,00, 0,00, 0,00, 0,00, 0,00, 0,00, -0,01, 1,01
1, 0,00, 8123,50, -65970,84, 0,00, 0,00, 0,00, 0,00, 0,00, 0,00, -0,01, 1,01
2, 0,00, -10082,02, -16195,72, 0,00, 0,00, 0,00, 0,00, 0,00, 0,00, -0,01, 1,01
3, 0,00, -8481,59, 873,01, 0,00, 0,00, 0,00, 0,00, 0,00, 0,00, -0,01, 1,01
4, 0,00, 10289,02, -38250,72, 0,00, 0,00, 0,00, 0,00, 0,00, 0,00, -0,01, 1,01
5, 0,00, 21399,38, -80943,95, 0,00, 0,00, 0,00, 0,00, 0,00, 0,00, -0,01, 1,01
6, 0,00, 8301,19, -66358,55, 0,00, 0,00, 0,00, 0,00, 0,00, 0,00, -0,01, 1,01
7, 0,00, -9894,71, -16820,65, 0,00, 0,00, 0,00, 0,00, 0,00, 0,00, -0,01, 1,02
8, 0,00, -8605,96, 906,92, 0,00, 0,00, 0,00, 0,00, 0,00, 0,00, -0,01, 1,02
9, 0,00, 10117,49, -37845,37, 0,00, 0,00, 0,00, 0,00, 0,00, 0,00, -0,01, 1,02
10, 0,00, 21431,81, -80820,04, 0,00, 0,00, 0,00, 0,00, 0,00, 0,00, -0,01, 1,02
11, 0,00, 8490,09, -66753,88, 0,00, 0,00, 0,00, 0,00, 0,00, 0,00, -0,01, 1,02
12, 0,00, -9821,87, -17106,26, 0,00, 0,00, 0,00, 0,00, 0,00, -0,00, -0,01, 1,02
13, 0,00, -8759,42, 1116,87, 0,00, 0,00, 0,00, 0,00, 0,00, -0,00, -0,01, 1,02
14, 0,00, 9988,86, -37429,18, 0,00, 0,00, 0,00, 0,00, 0,00, -0,00, -0,01, 1,02
15, 0,00, 21395,85, -80662,41, 0,00, 0,00, 0,00, 0,00, 0,00, -0,00, -0,01, 1,02
16, 0,00, 8633,83, -67127,09, 0,00, 0,00, 0,00, 0,00, 0,00, -0,00, -0,01, 1,02
17, 0,00, -9642,97, -17832,47, 0,00, 0,00, 0,00, 0,00, 0,00, -0,00, -0,01, 1,01
18, 0,00, -8907,73, 1189,87, 0,00, 0,00, 0,00, 0,00, 0,00, -0,00, -0,01, 1,01
19, 0,00, 9727,05, -36854,83, 0,00, 0,00, 0,00, 0,00, 0,00, -0,00, -0,01, 1,01
20, 0,00, 21393,37, -80337,09, 0,00, 0,00, 0,00, 0,00, 0,00, -0,00, -0,01, 1,01
21, 0,00, 8842,89, -67438,54, 0,00, 0,00, 0,00, 0,00, 0,00, -0,00, -0,01, 1,01
22, 0,00, -9548,91, -18093,63, 0,00, 0,00, 0,00, 0,00, 0,00, -0,00, -0,01, 1,01
23, 0,00, -8988,55, 1361,71, 0,00, 0,00, 0,00, 0,00, 0,00, -0,00, -0,01, 1,01
24, 0,00, 9640,44, -36435,96, 0,00, 0,00, 0,00, 0,00, 0,00, -0,00, -0,01, 1,01
25, 0,00, 21426,40, -80271,62, 0,00, 0,00, 0,00, 0,00, 0,00, -0,00, -0,01, 1,01
26, 0,00, 9011,60, -68023,48, 0,00, 0,00, 0,00, 0,00, 0,00, -0,00, -0,01, 1,01
27, 0,00, -9344,17, -18838,74, 0,00, 0,00, 0,00, 0,00, 0,00, 0,00, -0,01, 1,01
28, 0,00, -9137,48, 1346,76, 0,00, 0,00, 0,00, 0,00, 0,00, 0,00, -0,01, 1,01
29, 0,00, 9376,20, -35890,87, 0,00, 0,00, 0,00, 0,00, 0,00, 0,00, -0,01, 1,01
30, 0,00, 21447,53, -79919,02, 0,00, 0,00, 0,00, 0,00, 0,00, 0,00, -0,01, 1,01
31, 0,00, 9278,19, -68242,94, 0,00, 0,00, 0,00, 0,00, 0,00, 0,00, -0,01, 1,01
32, 0,00, -9275,77, -19059,24, 0,00, 0,00, 0,00, 0,00, 0,00, 0,00, -0,02, 1,01
33, 0,00, -9219,96, 1639,30, 0,00, 0,00, 0,00, 0,00, 0,00, 0,00, -0,02, 1,01
34, 0,00, 9255,92, -35385,98, 0,00, 0,00, 0,00, 0,00, 0,00, 0,00, -0,02, 1,01
35, 0,00, 21371,75, -79702,45, 0,00, 0,00, 0,00, 0,00, 0,00, 0,00, -0,02, 1,01
36, 0,00, 9397,68, -68553,78, 0,00, 0,00, 0,00, 0,00, 0,00, 0,00, -0,02, 1,01
37, 0,00, -9088,35, -19576,80, 0,00, 0,00, 0,00, 0,00, 0,00, 0,00, -0,02, 1,01
38, 0,00, -9358,70, 1705,51, 0,00, 0,00, 0,00, 0,00, 0,00, 0,00, -0,02, 1,01
39, 0,00, 9071,88, -34934,59, 0,00, 0,00, 0,00, 0,00, 0,00, 0,00, -0,02, 1,01
40, 0,00, 21405,57, -79557,01, 0,00, 0,00, 0,00, 0,00, 0,00, 0,00, -0,02, 1,01
41, 0,00, 9625,22, -68994,60, 0,00, 0,00, 0,00, 0,00, 0,00, 0,00, -0,02, 1,01
42, 0,00, -8966,11, -20053,58, 0,00, 0,00, 0,00, 0,00, 0,00, 0,01, -0,02, 1,00
43, 0,00, -9468,47, 1777,61, 0,00, 0,00, 0,00, 0,00, 0,00, 0,01, -0,02, 1,00
44, 0,00, 8834,55, -34486,82, 0,00, 0,00, 0,00, 0,00, 0,00, 0,01, -0,02, 1,00
45, 0,00, 21369,16, -79333,71, 0,00, 0,00, 0,00, 0,00, 0,00, 0,01, -0,02, 1,00
46, 0,00, 9871,07, -69389,76, 0,00, 0,00, 0,00, 0,00, 0,00, 0,01, -0,02, 1,00
47, 0,00, -8738,01, -20545,77, 0,00, 0,00, 0,00, 0,00, 0,00, 0,00, -0,01, 1,01
48, 0,00, -9533,60, 1878,93, 0,00, 0,00, 0,00, 0,00, 0,00, 0,00, -0,01, 1,01
49, 0,00, 8625,65, -33880,71, 0,00, 0,00, 0,00, 0,00, 0,00, 0,00, -0,01, 1,01
50, 0,00, 21296,27, -78889,36, 0,00, 0,00, 0,00, 0,00, 0,00, 0,00, -0,01, 1,01
51, 0,00, 9963,00, -69593,65, 0,00, 0,00, 0,00, 0,00, 0,00, 0,00, -0,01, 1,01
52, 0,00, -8644,11, -20896,13, 0,00, 0,00, 0,00, 0,00, 0,00, -0,00, -0,01, 1,01
53, 0,00, -9629,73, 2142,10, 0,00, 0,00, 0,00, 0,00, 0,00, -0,00, -0,01, 1,01
54, 0,00, 8570,55, -33373,81, 0,00, 0,00, 0,00, 0,00, 0,00, -0,00, -0,01, 1,01
55, 0,00, 21417,17, -78739,76, 0,00, 0,00, 0,00, 0,00, 0,00, -0,00, -0,01, 1,01
56, 0,00, 10167,43, -69979,09, 0,00, 0,00, 0,00, 0,00, 0,00, -0,00, -0,01, 1,01
57, 0,00, -8590,87, -21362,68, 0,00, 0,00, 0,00, 0,00, 0,00, -0,00, -0,01, 1,01
58, 0,00, -9846,14, 2114,16, 0,00, 0,00, 0,00, 0,00, 0,00, -0,00, -0,01, 1,01
59, 0,00, 8396,32, -33054,96, 0,00, 0,00, 0,00, 0,00, 0,00, -0,00, -0,01, 1,01
60, 0,00, 21419,36, -78536,70, 0,00, 0,00, 0,00, 0,00, 0,00, -0,00, -0,01, 1,01
61, 0,00, 10335,31, -70308,37, 0,00, 0,00, 0,00, 0,00, 0,00, -0,00, -0,01, 1,01
62, 0,00, -8445,18, -21825,05, 0,00, 0,00, 0,00, 0,00, 0,00, 0,00, -0,02, 1,01
63, 0,00, -9918,88, 2222,34, 0,00, 0,00, 0,00, 0,00, 0,00, 0,00, -0,02, 1,01
64, 0,00, 8171,13, -32570,38, 0,00, 0,00, 0,00, 0,00, 0,00, 0,00, -0,02, 1,01
65, 0,00, 21284,72, -78105,28, 0,00, 0,00, 0,00, 0,00, 0,00, 0,00, -0,02, 1,01
66, 0,00, 10449,62, -70383,63, 0,00, 0,00, 0,00, 0,00, 0,00, 0,00, -0,02, 1,01
67, 0,00, -8306,44, -22224,07, 0,00, 0,00, 0,00, 0,00, 0,00, 0,00, -0,02, 1,01
68, 0,00, -10019,10, 2331,64, 0,00, 0,00, 0,00, 0,00, 0,00, 0,00, -0,02, 1,01
69, 0,00, 8013,68, -31953,65, 0,00, 0,00, 0,00, 0,00, 0,00, 0,00, -0,02, 1,01
70, 0,00, 21281,18, -77811,65, 0,00, 0,00, 0,00, 0,00, 0,00, 0,00, -0,02, 1,01
71, 0,00, 10595,24, -70675,03, 0,00, 0,00, 0,00, 0,00, 0,00, 0,00, -0,02, 1,01
72, 0,00, -8144,77, -22586,91, 0,00, 0,00, 0,00, 0,00, 0,00, 0,00, -0,02, 1,01
73, 0,00, -10084,37, 2381,78, 0,00, 0,00, 0,00, 0,00, 0,00, 0,00, -0,02, 1,01
74, 0,00, 7852,12, -31624,32, 0,00, 0,00, 0,00, 0,00, 0,00, 0,00, -0,02, 1,01
75, 0,00, 21281,23, -77660,44, 0,00, 0,00, 0,00, 0,00, 0,00, 0,00, -0,02, 1,01
76, 0,00, 10794,57, -71131,92, 0,00, 0,00, 0,00, 0,00, 0,00, 0,00, -0,02, 1,01
77, 0,00, -8110,22, -22965,39, 0,00, 0,00, 0,00, 0,00, 0,00, 0,00, -0,02, 1,01
78, 0,00, -10244,54, 2549,86, 0,00, 0,00, 0,00, 0,00, 0,00, 0,00, -0,02, 1,01
79, 0,00, 7645,77, -31045,68, 0,00, 0,00, 0,00, 0,00, 0,00, 0,00, -0,02, 1,01
80, 0,00, 21187,82, -77174,07, 0,00, 0,00, 0,00, 0,00, 0,00, 0,00, -0,02, 1,01
81, 0,00, 10891,49, -71215,77, 0,00, 0,00, 0,00, 0,00, 0,00, 0,00, -0,02, 1,01
82, 0,00, -7981,11, -23227,04, 0,00, 0,00, 0,00, 0,00, 0,00, 0,00, -0,02, 1,01
83, 0,00, -10338,71, 2726,89, 0,00, 0,00, 0,00, 0,00, 0,00, 0,00, -0,02, 1,01
84, 0,00, 7478,18, -30661,72, 0,00, 0,00, 0,00, 0,00, 0,00, 0,00, -0,02, 1,01
85, 0,00, 21239,59, -77115,10, 0,00, 0,00, 0,00, 0,00, 0,00, 0,00, -0,02, 1,01
86, 0,00, 11135,21, -71620,55, 0,00, 0,00, 0,00, 0,00, 0,00, 0,00, -0,02, 1,01
87, 0,00, -7853,58, -23656,26, 0,00, 0,00, 0,00, 0,00, 0,00, 0,00, -0,02, 1,01
88, 0,00, -10442,73, 2809,08, 0,00, 0,00, 0,00, 0,00, 0,00, 0,00, -0,02, 1,01
89, 0,00, 7327,73, -30170,83, 0,00, 0,00, 0,00, 0,00, 0,00, 0,00, -0,02, 1,01
90, 0,00, 21200,94, -76749,00, 0,00, 0,00, 0,00, 0,00, 0,00, 0,00, -0,02, 1,01
91, 0,00, 11284,21, -72007,13, 0,00, 0,00, 0,00, 0,00, 0,00, 0,00, -0,02, 1,01
92, 0,00, -7668,66, -24131,55, 0,00, 0,00, 0,00, 0,00, 0,00, 0,00, -0,02, 1,01
93, 0,00, -10482,79, 2879,26, 0,00, 0,00, 0,00, 0,00, 0,00, 0,00, -0,02, 1,02
94, 0,00, 7182,13, -29771,16, 0,00, 0,00, 0,00, 0,00, 0,00, 0,00, -0,02, 1,02
95, 0,00, 21162,81, -76494,80, 0,00, 0,00, 0,00, 0,00, 0,00, 0,00, -0,02, 1,02
96, 0,00, 11479,43, -72303,02, 0,00, 0,00, 0,00, 0,00, 0,00, 0,00, -0,02, 1,02
97, 0,00, -7592,37, -24524,20, 0,00, 0,00, 0,00, 0,00, 0,00, 0,00, -0,02, 1,02
98, 0,00, -10639,00, 2985,28, 0,00, 0,00, 0,00, 0,00, 0,00, 0,00, -0,01, 1,01
99, 0,00, 6963,22, -29261,05, 0,00, 0,00, 0,00, 0,00, 0,00, 0,00, -0,01, 1,01
100, 0,00, 21121,48, -76238,42, 0,00, 0,00, 0,00, 0,00, 0,00, 0,00, -0,01, 1,01
101, 0,00, 11685,51, -72638,92, 0,00, 0,00, 0,00, 0,00, 0,00, 0,00, -0,01, 1,01
102, 0,00, -7399,43, -25021,84, 0,00, 0,00, 0,00, 0,00, 0,00, 0,00, -0,01, 1,01
103, 0,00, -10695,02, 2929,62, 0,00, 0,00, 0,00, 0,00, 0,00, 0,00, -0,01, 1,02
104, 0,00, 6813,28, -28992,38, 0,00, 0,00, 0,00, 0,00, 0,00, 0,00, -0,01, 1,02
105, 0,00, 21129,06, -76105,20, 0,00, 0,00, 0,00, 0,00, 0,00, 0,00, -0,01, 1,02
106, 0,00, 11873,87, -73196,69, 0,00, 0,00, 0,00, 0,00, 0,00, 0,00, -0,01, 1,02
107, 0,00, -7238,54, -25696,93, 0,00, 0,00, 0,00, 0,00, 0,00, 0,00, -0,01, 1,02
108, 0,00, -10820,12, 2889,05, 0,00, 0,00, 0,00, 0,00, 0,00, 0,00, -0,01, 1,01
109, 0,00, 6570,25, -28450,10, 0,00, 0,00, 0,00, 0,00, 0,00, 0,00, -0,01, 1,01
110, 0,00, 21050,78, -75727,62, 0,00, 0,00, 0,00, 0,00, 0,00, 0,00, -0,01, 1,01
111, 0,00, 11956,60, -73339,18, 0,00, 0,00, 0,00, 0,00, 0,00, 0,00, -0,01, 1,01
112, 0,00, -7255,76, -25877,24, 0,00, 0,00, 0,00, 0,00, 0,00, 0,00, -0,01, 1,01
113, 0,00, -10966,37, 3117,11, 0,00, 0,00, 0,00, 0,00, 0,00, 0,00, -0,01, 1,01
114, 0,00, 6456,95, -28048,60, 0,00, 0,00, 0,00, 0,00, 0,00, 0,00, -0,01, 1,01
115, 0,00, 21062,94, -75512,77, 0,00, 0,00, 0,00, 0,00, 0,00, 0,00, -0,01, 1,01
116, 0,00, 12147,95, -73619,94, 0,00, 0,00, 0,00, 0,00, 0,00, 0,00, -0,01, 1,01
117, 0,00, -7017,04, -26593,63, 0,00, 0,00, 0,00, 0,00, 0,00, 0,00, -0,01, 1,01
118, 0,00, -11004,68, 2851,97, 0,00, 0,00, 0,00, 0,00, 0,00, 0,00, -0,01, 1,01
119, 0,00, 6250,31, -27648,91, 0,00, 0,00, 0,00, 0,00, 0,00, 0,00, -0,01, 1,01
120, 0,00, 20991,62, -75262,48, 0,00, 0,00, 0,00, 0,00, 0,00, 0,00, -0,01, 1,01
121, 0,00, 12285,81, -73992,05, 0,00, 0,00, 0,00, 0,00, 0,00, 0,00, -0,01, 1,01
122, 0,00, -6984,18, -26818,79, 0,00, 0,00, 0,00, 0,00, 0,00, 0,00, -0,01, 1,01
123, 0,00, -11138,08, 3180,34, 0,00, 0,00, 0,00, 0,00, 0,00, 0,00, -0,01, 1,00
124, 0,00, 6095,83, -27109,31, 0,00, 0,00, 0,00, 0,00, 0,00, 0,00, -0,01, 1,00
125, 0,00, 20984,22, -74871,73, 0,00, 0,00, 0,00, 0,00, 0,00, 0,00, -0,01, 1,00
126, 0,00, 12487,54, -74178,71, 0,00, 0,00, 0,00, 0,00, 0,00, 0,00, -0,01, 1,00
127, 0,00, -6749,42, -27469,58, 0,00, 0,00, 0,00, 0,00, 0,00, 0,00, -0,01, 1,00
128, 0,00, -11238,19, 3027,63, 0,00, 0,00, 0,00, 0,00, 0,00, -0,00, -0,01, 1,01
129, 0,00, 5829,96, -26555,19, 0,00, 0,00, 0,00, 0,00, 0,00, -0,00, -0,01, 1,01
130, 0,00, 20890,68, -74499,34, 0,00, 0,00, 0,00, 0,00, 0,00, -0,00, -0,01, 1,01
131, 0,00, 12624,67, -74408,17, 0,00, 0,00, 0,00, 0,00, 0,00, -0,00, -0,01, 1,01
132, 0,00, -6658,00, -27670,14, 0,00, 0,00, 0,00, 0,00, 0,00, -0,00, -0,01, 1,01
133, 0,00, -11272,99, 3202,16, 0,00, 0,00, 0,00, 0,00, 0,00, -0,00, -0,01, 1,01
134, 0,00, 5743,79, -26272,96, 0,00, 0,00, 0,00, 0,00, 0,00, -0,00, -0,01, 1,01
135, 0,00, 20842,35, -74288,52, 0,00, 0,00, 0,00, 0,00, 0,00, -0,00, -0,01, 1,01
136, 0,00, 12814,77, -74744,09, 0,00, 0,00, 0,00, 0,00, 0,00, -0,00, -0,01, 1,01
137, 0,00, -6429,08, -28338,01, 0,00, 0,00, 0,00, 0,00, 0,00, -0,00, -0,01, 1,01
138, 0,00, -11370,31, 3079,80, 0,00, 0,00, 0,00, 0,00, 0,00, -0,00, -0,01, 1,01
139, 0,00, 5508,56, -25810,27, 0,00, 0,00, 0,00, 0,00, 0,00, -0,00, -0,01, 1,01
140, 0,00, 20722,95, -73849,24, 0,00, 0,00, 0,00, 0,00, 0,00, -0,00, -0,01, 1,01
141, 0,00, 12938,71, -74980,31, 0,00, 0,00, 0,00, 0,00, 0,00, -0,00, -0,01, 1,01
142, 0,00, -6292,37, -28833,86, 0,00, 0,00, 0,00, 0,00, 0,00, -0,00, -0,01, 1,01
143, 0,00, -11489,18, 3054,72, 0,00, 0,00, 0,00, 0,00, 0,00, -0,00, -0,01, 1,01
144, 0,00, 5333,64, -25290,37, 0,00, 0,00, 0,00, 0,00, 0,00, -0,00, -0,01, 1,01
145, 0,00, 20705,18, -73467,52, 0,00, 0,00, 0,00, 0,00, 0,00, -0,00, -0,01, 1,01
146, 0,00, 13105,48, -75175,75, 0,00, 0,00, 0,00, 0,00, 0,00, -0,00, -0,01, 1,01
147, 0,00, -6136,02, -29203,76, 0,00, 0,00, 0,00, 0,00, 0,00, -0,00, -0,01, 1,01
148, 0,00, -11481,93, 3057,94, 0,00, 0,00, 0,00, 0,00, 0,00, 0,00, -0,01, 1,01
149, 0,00, 5192,33, -24915,38, 0,00, 0,00, 0,00, 0,00, 0,00, 0,00, -0,01, 1,01
150, 0,00, 20689,69, -73211,21, 0,00, 0,00, 0,00, 0,00, 0,00, 0,00, -0,01, 1,01
151, 0,00, 13306,62, -75519,05, 0,00, 0,00, 0,00, 0,00, 0,00, 0,00, -0,01, 1,01
152, 0,00, -5983,61, -29774,09, 0,00, 0,00, 0,00, 0,00, 0,00, 0,00, -0,01, 1,01
153, 0,00, -11612,18, 3000,34, 0,00, 0,00, 0,00, 0,00, 0,00, 0,00, -0,01, 1,01
154, 0,00, 5006,48, -24512,91, 0,00, 0,00, 0,00, 0,00, 0,00, 0,00, -0,01, 1,01
155, 0,00, 20638,48, -72892,01, 0,00, 0,00, 0,00, 0,00, 0,00, 0,00, -0,01, 1,01
156, 0,00, 13495,38, -75808,53, 0,00, 0,00, 0,00, 0,00, 0,00, 0,00, -0,01, 1,01
157, 0,00, -5845,36, -30179,64, 0,00, 0,00, 0,00, 0,00, 0,00, 0,00, -0,01, 1,01
158, 0,00, -11683,12, 3081,66, 0,00, 0,00, 0,00, 0,00, 0,00, 0,00, -0,01, 1,01
159, 0,00, 4760,68, -24009,44, 0,00, 0,00, 0,00, 0,00, 0,00, 0,00, -0,01, 1,01
160, 0,00, 20496,13, -72436,44, 0,00, 0,00, 0,00, 0,00, 0,00, 0,00, -0,01, 1,01
161, 0,00, 13562,73, -75880,48, 0,00, 0,00, 0,00, 0,00, 0,00, 0,00, -0,01, 1,01
162, 0,00, -5695,54, -30564,20, 0,00, 0,00, 0,00, 0,00, 0,00, 0,00, -0,01, 1,01
163, 0,00, -11732,94, 3047,57, 0,00, 0,00, 0,00, 0,00, 0,00, 0,00, -0,01, 1,01
164, 0,00, 4621,69, -23541,28, 0,00, 0,00, 0,00, 0,00, 0,00, 0,00, -0,01, 1,01
165, 0,00, 20509,38, -72214,04, 0,00, 0,00, 0,00, 0,00, 0,00, 0,00, -0,01, 1,01
166, 0,00, 13793,51, -76343,52, 0,00, 0,00, 0,00, 0,00, 0,00, 0,00, -0,01, 1,01
167, 0,00, -5498,62, -31212,31, 0,00, 0,00, 0,00, 0,00, 0,00, 0,00, -0,01, 1,01
168, 0,00, -11789,34, 2888,45, 0,00, 0,00, 0,00, 0,00, 0,00, 0,00, -0,01, 1,01
169, 0,00, 4465,95, -23236,34, 0,00, 0,00, 0,00, 0,00, 0,00, 0,00, -0,01, 1,01
170, 0,00, 20435,62, -71883,37, 0,00, 0,00, 0,00, 0,00, 0,00, 0,00, -0,01, 1,01
171, 0,00, 13967,25, -76582,35, 0,00, 0,00, 0,00, 0,00, 0,00, 0,00, -0,01, 1,01
172, 0,00, -5348,30, -31651,01, 0,00, 0,00, 0,00, 0,00, 0,00, 0,00, -0,01, 1,01
173, 0,00, -11865,31, 2846,61, 0,00, 0,00, 0,00, 0,00, 0,00, 0,00, -0,01, 1,00
174, 0,00, 4249,89, -22769,19, 0,00, 0,00, 0,00, 0,00, 0,00, 0,00, -0,01, 1,00
175, 0,00, 20364,65, -71474,30, 0,00, 0,00, 0,00, 0,00, 0,00, 0,00, -0,01, 1,00
176, 0,00, 14053,41, -76717,02, 0,00, 0,00, 0,00, 0,00, 0,00, 0,00, -0,01, 1,00
177, 0,00, -5260,10, -31983,94, 0,00, 0,00, 0,00, 0,00, 0,00, 0,00, -0,01, 1,00
178, 0,00, -11910,95, 2959,57, 0,00, 0,00, 0,00, 0,00, 0,00, 0,00, -0,01, 1,00
179, 0,00, 4123,92, -22340,68, 0,00, 0,00, 0,00, 0,00, 0,00, 0,00, -0,01, 1,00
180, 0,00, 20287,54, -71201,93, 0,00, 0,00, 0,00, 0,00, 0,00, 0,00, -0,01, 1,00
181, 0,00, 14217,12, -77083,36, 0,00, 0,00, 0,00, 0,00, 0,00, 0,00, -0,01, 1,00
182, 0,00, -5062,16, -32626,77, 0,00, 0,00, 0,00, 0,00, 0,00, 0,00, -0,01, 1,00
183, 0,00, -12008,65, 2760,17, 0,00, 0,00, 0,00, 0,00, 0,00, 0,00, -0,01, 1,01
184, 0,00, 3918,46, -21995,10, 0,00, 0,00, 0,00, 0,00, 0,00, 0,00, -0,01, 1,01
185, 0,00, 20262,62, -70978,66, 0,00, 0,00, 0,00, 0,00, 0,00, 0,00, -0,01, 1,01
186, 0,00, 14436,28, -77406,57, 0,00, 0,00, 0,00, 0,00, 0,00, 0,00, -0,01, 1,01
187, 0,00, -4934,26, -32887,66, 0,00, 0,00, 0,00, 0,00, 0,00, 0,00, -0,01, 1,01
188, 0,00, -12106,62, 2943,64, 0,00, 0,00, 0,00, 0,00, 0,00, 0,00, -0,02, 1,00
189, 0,00, 3703,08, -21560,71, 0,00, 0,00, 0,00, 0,00, 0,00, 0,00, -0,02, 1,00
190, 0,00, 20102,82, -70528,20, 0,00, 0,00, 0,00, 0,00, 0,00, 0,00, -0,02, 1,00
191, 0,00, 14541,02, -77434,58, 0,00, 0,00, 0,00, 0,00, 0,00, 0,00, -0,02, 1,00
192, 0,00, -4720,67, -33405,55, 0,00, 0,00, 0,00, 0,00, 0,00, 0,00, -0,02, 1,00
193, 0,00, -12115,52, 2698,50, 0,00, 0,00, 0,00, 0,00, 0,00, -0,00, -0,02, 1,01
194, 0,00, 3552,81, -21105,86, 0,00, 0,00, 0,00, 0,00, 0,00, -0,00, -0,02, 1,01
195, 0,00, 20115,92, -70245,36, 0,00, 0,00, 0,00, 0,00, 0,00, -0,00, -0,02, 1,01
196, 0,00, 14740,93, -77839,73, 0,00, 0,00, 0,00, 0,00, 0,00, -0,00, -0,02, 1,01
197, 0,00, -4624,64, -33814,99, 0,00, 0,00, 0,00, 0,00, 0,00, -0,00, -0,02, 1,01
198, 0,00, -12197,32, 2811,94, 0,00, 0,00, 0,00, 0,00, 0,00, 0,00, -0,02, 1,01
199, 0,00, 3387,99, -20753,17, 0,00, 0,00, 0,00, 0,00, 0,00, 0,00, -0,02, 1,01
200, 0,00, 19985,43, -69809,70, 0,00, 0,00, 0,00, 0,00, 0,00, 0,00, -0,02, 1,01
201, 0,00, 14857,20, -77973,45, 0,00, 0,00, 0,00, 0,00, 0,00, 0,00, -0,02, 1,01
202, 0,00, -4437,04, -34321,66, 0,00, 0,00, 0,00, 0,00, 0,00, 0,00, -0,02, 1,01
203, 0,00, -12223,25, 2679,66, 0,00, 0,00, 0,00, 0,00, 0,00, 0,00, -0,01, 1,00
204, 0,00, 3251,35, -20399,12, 0,00, 0,00, 0,00, 0,00, 0,00, 0,00, -0,01, 1,00
205, 0,00, 19935,68, -69634,84, 0,00, 0,00, 0,00, 0,00, 0,00, 0,00, -0,01, 1,00
206, 0,00, 15045,72, -78259,52, 0,00, 0,00, 0,00, 0,00, 0,00, 0,00, -0,01, 1,00
207, 0,00, -4298,89, -34748,25, 0,00, 0,00, 0,00, 0,00, 0,00, 0,00, -0,01, 1,00
208, 0,00, -12337,54, 2664,62, 0,00, 0,00, 0,00, 0,00, 0,00, 0,00, -0,01, 1,01
209, 0,00, 3029,96, -19905,28, 0,00, 0,00, 0,00, 0,00, 0,00, 0,00, -0,01, 1,01
210, 0,00, 19903,98, -69073,80, 0,00, 0,00, 0,00, 0,00, 0,00, 0,00, -0,01, 1,01
211, 0,00, 15192,30, -78408,42, 0,00, 0,00, 0,00, 0,00, 0,00, 0,00, -0,01, 1,01
212, 0,00, -4120,32, -35198,72, 0,00, 0,00, 0,00, 0,00, 0,00, 0,00, -0,01, 1,01
213, 0,00, -12289,53, 2493,20, 0,00, 0,00, 0,00, 0,00, 0,00, 0,00, -0,01, 1,01
214, 0,00, 2931,86, -19658,56, 0,00, 0,00, 0,00, 0,00, 0,00, 0,00, -0,01, 1,01
215, 0,00, 19833,22, -68866,02, 0,00, 0,00, 0,00, 0,00, 0,00, 0,00, -0,01, 1,01
216, 0,00, 15372,05, -78802,73, 0,00, 0,00, 0,00, 0,00, 0,00, 0,00, -0,01, 1,01
217, 0,00, -3948,23, -35786,68, 0,00, 0,00, 0,00, 0,00, 0,00, 0,00, -0,01, 1,01
218, 0,00, -12337,83, 2346,26, 0,00, 0,00, 0,00, 0,00, 0,00, 0,00, -0,01, 1,01
219, 0,00, 2780,96, -19321,94, 0,00, 0,00, 0,00, 0,00, 0,00, 0,00, -0,01, 1,01
220, 0,00, 19719,78, -68472,64, 0,00, 0,00, 0,00, 0,00, 0,00, 0,00, -0,01, 1,01
221, 0,00, 15489,62, -79032,46, 0,00, 0,00, 0,00, 0,00, 0,00, 0,00, -0,01, 1,01
222, 0,00, -3834,98, -36208,04, 0,00, 0,00, 0,00, 0,00, 0,00, 0,00, -0,01, 1,01
223, 0,00, -12462,04, 2400,33, 0,00, 0,00, 0,00, 0,00, 0,00, -0,00, -0,01, 1,01
224, 0,00, 2521,39, -18732,10, 0,00, 0,00, 0,00, 0,00, 0,00, -0,00, -0,01, 1,01
225, 0,00, 19667,41, -68053,59, 0,00, 0,00, 0,00, 0,00, 0,00, -0,00, -0,01, 1,01
226, 0,00, 15697,43, -79226,11, 0,00, 0,00, 0,00, 0,00, 0,00, -0,00, -0,01, 1,01
227, 0,00, -3613,90, -36668,95, 0,00, 0,00, 0,00, 0,00, 0,00, -0,00, -0,01, 1,01
228, 0,00, -12439,26, 2293,71, 0,00, 0,00, 0,00, 0,00, 0,00, -0,00, -0,02, 1,01
229, 0,00, 2405,90, -18387,75, 0,00, 0,00, 0,00, 0,00, 0,00, -0,00, -0,02, 1,01
230, 0,00, 19534,96, -67634,37, 0,00, 0,00, 0,00, 0,00, 0,00, -0,00, -0,02, 1,01
231, 0,00, 15778,14, -79338,23, 0,00, 0,00, 0,00, 0,00, 0,00, -0,00, -0,02, 1,01
232, 0,00, -3471,90, -37065,38, 0,00, 0,00, 0,00, 0,00, 0,00, -0,00, -0,02, 1,01
233, 0,00, -12482,96, 2140,47, 0,00, 0,00, 0,00, 0,00, 0,00, 0,00, -0,02, 1,01
234, 0,00, 2215,48, -18052,97, 0,00, 0,00, 0,00, 0,00, 0,00, 0,00, -0,02, 1,01
235, 0,00, 19486,38, -67346,23, 0,00, 0,00, 0,00, 0,00, 0,00, 0,00, -0,02, 1,01
236, 0,00, 15929,10, -79617,70, 0,00, 0,00, 0,00, 0,00, 0,00, 0,00, -0,02, 1,01
237, 0,00, -3339,17, -37643,11, 0,00, 0,00, 0,00, 0,00, 0,00, 0,00, -0,02, 1,01
238, 0,00, -12529,23, 2024,22, 0,00, 0,00, 0,00, 0,00, 0,00, -0,00, -0,01, 1,01
239, 0,00, 2038,72, -17639,48, 0,00, 0,00, 0,00, 0,00, 0,00, -0,00, -0,01, 1,01
240, 0,00, 19381,78, -66841,33, 0,00, 0,00, 0,00, 0,00, 0,00, -0,00, -0,01, 1,01
241, 0,00, 16067,13, -79587,27, 0,00, 0,00, 0,00, 0,00, 0,00, -0,00, -0,01, 1,01
242, 0,00, -3096,66, -38110,44, 0,00, 0,00, 0,00, 0,00, 0,00, -0,00, -0,01, 1,01
243, 0,00, -12501,64, 1692,65, 0,00, 0,00, 0,00, 0,00, 0,00, -0,00, -0,01, 1,01
244, 0,00, 1813,73, -17185,34, 0,00, 0,00, 0,00, 0,00, 0,00, -0,00, -0,01, 1,01
245, 0,00, 19236,34, -66439,35, 0,00, 0,00, 0,00, 0,00, 0,00, -0,00, -0,01, 1,01
246, 0,00, 16170,97, -79823,27, 0,00, 0,00, 0,00, 0,00, 0,00, -0,00, -0,01, 1,01
247, 0,00, -2961,87, -38567,42, 0,00, 0,00, 0,00, 0,00, 0,00, -0,00, -0,01, 1,01
248, 0,00, -12572,23, 1664,78, 0,00, 0,00, 0,00, 0,00, 0,00, 0,00, -0,01, 1,01
249, 0,00, 1677,19, -16878,16, 0,00, 0,00, 0,00, 0,00, 0,00, 0,00, -0,01, 1,01
250, 0,00, 19182,80, -66169,16, 0,00, 0,00, 0,00, 0,00, 0,00, 0,00, -0,01, 1,01
251, 0,00, 16318,07, -80084,53, 0,00, 0,00, 0,00, 0,00, 0,00, 0,00, -0,01, 1,01
252, 0,00, -2802,37, -39046,15, 0,00, 0,00, 0,00, 0,00, 0,00, 0,00, -0,01, 1,01
253, 0,00, -12622,41, 1568,40, 0,00, 0,00, 0,00, 0,00, 0,00, 0,00, -0,01, 1,01
254, 0,00, 1461,07, -16448,78, 0,00, 0,00, 0,00, 0,00, 0,00, 0,00, -0,01, 1,01
255, 0,00, 19066,39, -65640,52, 0,00, 0,00, 0,00, 0,00, 0,00, 0,00, -0,01, 1,01
0, 0,00, 16481,68, -80191,58, 0,00, 0,00, 0,00, 0,00, 0,00, 0,00, -0,01, 1,01
1, 0,00, -2614,89, -39428,27, 0,00, 0,00, 0,00, 0,00, 0,00, 0,00, -0,01, 1,01
2, 0,00, -12581,77, 1385,12, 0,00, 0,00, 0,00, 0,00, 0,00, 0,00, -0,01, 1,01
3, 0,00, 1324,74, -16116,70, 0,00, 0,00, 0,00, 0,00, 0,00, 0,00, -0,01, 1,01
4, 0,00, 19004,86, -65319,55, 0,00, 0,00, 0,00, 0,00, 0,00, 0,00, -0,01, 1,01
5, 0,00, 16619,26, -80370,73, 0,00, 0,00, 0,00, 0,00, 0,00, 0,00, -0,01, 1,01
6, 0,00, -2474,20, -39958,30, 0,00, 0,00, 0,00, 0,00, 0,00, 0,00, -0,01, 1,01
7, 0,00, -12660,32, 1235,87, 0,00, 0,00, 0,00, 0,00, 0,00, 0,01, -0,02, 1,01
8, 0,00, 1162,07, -15767,81, 0,00, 0,00, 0,00, 0,00, 0,00, 0,01, -0,02, 1,01
9, 0,00, 18883,20, -64932,20, 0,00, 0,00, 0,00, 0,00, 0,00, 0,01, -0,02, 1,01
10, 0,00, 16724,38, -80533,16, 0,00, 0,00, 0,00, 0,00, 0,00, 0,01, -0,02, 1,01
11, 0,00, -2301,69, -40417,34, 0,00, 0,00, 0,00, 0,00, 0,00, 0,01, -0,02, 1,01
12, 0,00, -12700,06, 1139,74, 0,00, 0,00, 0,00, 0,00, 0,00, 0,01, -0,02, 1,01
13, 0,00, 931,46, -15320,26, 0,00, 0,00, 0,00, 0,00, 0,00, 0,01, -0,02, 1,01
14, 0,00, 18742,18, -64462,41, 0,00, 0,00, 0,00, 0,00, 0,00, 0,01, -0,02, 1,01
15, 0,00, 16804,96, -80594,66, 0,00, 0,00, 0,00, 0,00, 0,00, 0,01, -0,02, 1,01
16, 0,00, -2145,68, -40758,16, 0,00, 0,00, 0,00, 0,00, 0,00, 0,01, -0,02, 1,01
17, 0,00, -12645,70, 888,33, 0,00, 0,00, 0,00, 0,00, 0,00, 0,01, -0,02, 1,02
18, 0,00, 784,52, -15040,60, 0,00, 0,00, 0,00, 0,00, 0,00, 0,01, -0,02, 1,02
19, 0,00, 18624,03, -64074,43, 0,00, 0,00, 0,00, 0,00, 0,00, 0,01, -0,02, 1,02
20, 0,00, 16930,06, -80730,12, 0,00, 0,00, 0,00, 0,00, 0,00, 0,01, -0,02, 1,02
21, 0,00, -1981,82, -41274,95, 0,00, 0,00, 0,00, 0,00, 0,00, 0,01, -0,02, 1,02
22, 0,00, -12709,07, 713,62, 0,00, 0,00, 0,00, 0,00, 0,00, 0,01, -0,02, 1,02
23, 0,00, 611,97, -14671,15, 0,00, 0,00, 0,00, 0,00, 0,00, 0,01, -0,02, 1,02
24, 0,00, 18552,01, -63688,48, 0,00, 0,00, 0,00, 0,00, 0,00, 0,01, -0,02, 1,02
25, 0,00, 17073,00, -80937,16, 0,00, 0,00, 0,00, 0,00, 0,00, 0,01, -0,02, 1,02
26, 0,00, -1855,40, -41761,86, 0,00, 0,00, 0,00, 0,00, 0,00, 0,01, -0,02, 1,02
27, 0,00, -12727,98, 582,42, 0,00, 0,00, 0,00, 0,00, 0,00, 0,00, -0,02, 1,01
28, 0,00, 425,71, -14272,30, 0,00, 0,00, 0,00, 0,00, 0,00, 0,00, -0,02, 1,01
29, 0,00, 18386,70, -63236,41, 0,00, 0,00, 0,00, 0,00, 0,00, 0,00, -0,02, 1,01
30, 0,00, 17217,26, -80992,17, 0,00, 0,00, 0,00, 0,00, 0,00, 0,00, -0,02, 1,01
31, 0,00, -1587,58, -42073,71, 0,00, 0,00, 0,00, 0,00, 0,00, 0,00, -0,02, 1,01
32, 0,00, -12679,56, 512,64, 0,00, 0,00, 0,00, 0,00, 0,00, 0,00, -0,02, 1,01
33, 0,00, 277,59, -13825,45, 0,00, 0,00, 0,00, 0,00, 0,00, 0,00, -0,02, 1,01
34, 0,00, 18328,74, -62794,70, 0,00, 0,00, 0,00, 0,00, 0,00, 0,00, -0,02, 1,01
35, 0,00, 17308,23, -81141,77, 0,00, 0,00, 0,00, 0,00, 0,00, 0,00, -0,02, 1,01
36, 0,00, -1499,33, -42585,77, 0,00, 0,00, 0,00, 0,00, 0,00, 0,00, -0,02, 1,01
37, 0,00, -12731,58, 207,74, 0,00, 0,00, 0,00, 0,00, 0,00, -0,00, -0,02, 1,01
38, 0,00, 94,50, -13680,72, 0,00, 0,00, 0,00, 0,00, 0,00, -0,00, -0,02, 1,01
39, 0,00, 18234,64, -62568,68, 0,00, 0,00, 0,00, 0,00, 0,00, -0,00, -0,02, 1,01
40, 0,00, 17441,38, -81376,09, 0,00, 0,00, 0,00, 0,00, 0,00, -0,00, -0,02, 1,01
41, 0,00, -1354,99, -43071,79, 0,00, 0,00, 0,00, 0,00, 0,00, -0,00, -0,02, 1,01
42, 0,00, -12787,14, 128,72, 0,00, 0,00, 0,00, 0,00, 0,00, 0,00, -0,01, 1,01
43, 0,00, -112,27, -13162,54, 0,00, 0,00, 0,00, 0,00, 0,00, 0,00, -0,01, 1,01
44, 0,00, 18110,97, -61960,35, 0,00, 0,00, 0,00, 0,00, 0,00, 0,00, -0,01, 1,01
45, 0,00, 17550,88, -81418,04, 0,00, 0,00, 0,00, 0,00, 0,00, 0,00, -0,01, 1,01
46, 0,00, -1247,34, -43297,29, 0,00, 0,00, 0,00, 0,00, 0,00, 0,00, -0,01, 1,01
47, 0,00, -12870,51, 278,46, 0,00, 0,00, 0,00, 0,00, 0,00, -0,00, -0,01, 1,01
48, 0,00, -272,62, -12770,47, 0,00, 0,00, 0,00, 0,00, 0,00, -0,00, -0,01, 1,01
49, 0,00, 17988,04, -61679,10, 0,00, 0,00, 0,00, 0,00, 0,00, -0,00, -0,01, 1,01
50, 0,00, 17721,15, -81716,05, 0,00, 0,00, 0,00, 0,00, 0,00, -0,00, -0,01, 1,01
51, 0,00, -1013,79, -43942,61, 0,00, 0,00, 0,00, 0,00, 0,00, -0,00, -0,01, 1,01
52, 0,00, -12787,68, -183,64, 0,00, 0,00, 0,00, 0,00, 0,00, -0,00, -0,01, 1,01
53, 0,00, -381,88, -12669,62, 0,00, 0,00, 0,00, 0,00, 0,00, -0,01, -0,01, 1,02
54, 0,00, 17905,49, -61421,61, 0,00, 0,00, 0,00, 0,00, 0,00, -0,01, -0,01, 1,02
55, 0,00, 17755,73, -81823,90, 0,00, 0,00, 0,00, 0,00, 0,00, -0,01, -0,01, 1,02
56, 0,00, -959,09, -44250,21, 0,00, 0,00, 0,00, 0,00, 0,00, -0,01, -0,01, 1,02
57, 0,00, -12865,91, -98,19, 0,00, 0,00, 0,00, 0,00, 0,00, -0,01, -0,01, 1,02
58, 0,00, -497,80, -12367,80, 0,00, 0,00, 0,00, 0,00, 0,00, 0,00, -0,01, 1,01
59, 0,00, 17869,01, -61060,47, 0,00, 0,00, 0,00, 0,00, 0,00, 0,00, -0,01, 1,01
60, 0,00, 17916,78, -81807,92, 0,00, 0,00, 0,00, 0,00, 0,00, 0,00, -0,01, 1,01
61, 0,00, -739,42, -44725,53, 0,00, 0,00, 0,00, 0,00, 0,00, 0,00, -0,01, 1,01
62, 0,00, -12836,41, -572,05, 0,00, 0,00, 0,00, 0,00, 0,00, 0,00, -0,01, 1,01
63, 0,00, -769,17, -11913,61, 0,00, 0,00, 0,00, 0,00, 0,00, -0,00, -0,01, 1,01
64, 0,00, 17686,51, -60563,66, 0,00, 0,00, 0,00, 0,00, 0,00, -0,00, -0,01, 1,01
65, 0,00, 18015,42, -81886,59, 0,00, 0,00, 0,00, 0,00, 0,00, -0,00, -0,01, 1,01
66, 0,00, -600,05, -45025,31, 0,00, 0,00, 0,00, 0,00, 0,00, -0,00, -0,01, 1,01
67, 0,00, -12840,12, -635,21, 0,00, 0,00, 0,00, 0,00, 0,00, -0,00, -0,01, 1,01
68, 0,00, -848,76, -11741,97, 0,00, 0,00, 0,00, 0,00, 0,00, 0,00, -0,01, 1,01
69, 0,00, 17621,24, -60271,75, 0,00, 0,00, 0,00, 0,00, 0,00, 0,00, -0,01, 1,01
70, 0,00, 18192,71, -82114,30, 0,00, 0,00, 0,00, 0,00, 0,00, 0,00, -0,01, 1,01
71, 0,00, -310,56, -45796,13, 0,00, 0,00, 0,00, 0,00, 0,00, 0,00, -0,01, 1,01
72, 0,00, -12829,66, -1105,76, 0,00, 0,00, 0,00, 0,00, 0,00, 0,00, -0,01, 1,01
73, 0,00, -1176,84, -11349,17, 0,00, 0,00, 0,00, 0,00, 0,00, 0,00, -0,01, 1,01
74, 0,00, 17494,20, -59771,56, 0,00, 0,00, 0,00, 0,00, 0,00, 0,00, -0,01, 1,01
75, 0,00, 18347,90, -82172,85, 0,00, 0,00, 0,00, 0,00, 0,00, 0,00, -0,01, 1,01
76, 0,00, -252,15, -46059,21, 0,00, 0,00, 0,00, 0,00, 0,00, 0,00, -0,01, 1,01
77, 0,00, -12892,02, -1081,18, 0,00, 0,00, 0,00, 0,00, 0,00, 0,00, -0,01, 1,01
78, 0,00, -1253,17, -10918,07, 0,00, 0,00, 0,00, 0,00, 0,00, 0,01, -0,02, 1,00
79, 0,00, 17361,52, -59188,73, 0,00, 0,00, 0,00, 0,00, 0,00, 0,01, -0,02, 1,00
80, 0,00, 18395,06, -82122,05, 0,00, 0,00, 0,00, 0,00, 0,00, 0,01, -0,02, 1,00
81, 0,00, -14,82, -46487,63, 0,00, 0,00, 0,00, 0,00, 0,00, 0,01, -0,02, 1,00
82, 0,00, -12786,45, -1565,94, 0,00, 0,00, 0,00, 0,00, 0,00, 0,01, -0,02, 1,00
83, 0,00, -1468,91, -10615,36, 0,00, 0,00, 0,00, 0,00, 0,00, 0,00, -0,02, 1,00
84, 0,00, 17244,88, -58892,20, 0,00, 0,00, 0,00, 0,00, 0,00, 0,00, -0,02, 1,00
85, 0,00, 18511,80, -82337,30, 0,00, 0,00, 0,00, 0,00, 0,00, 0,00, -0,02, 1,00
86, 0,00, 126,31, -46964,79, 0,00, 0,00, 0,00, 0,00, 0,00, 0,00, -0,02, 1,00
87, 0,00, -12815,15, -1639,39, 0,00, 0,00, 0,00, 0,00, 0,00, 0,00, -0,02, 1,00
88, 0,00, -1563,28, -10387,64, 0,00, 0,00, 0,00, 0,00, 0,00, -0,00, -0,01, 1,00
89, 0,00, 17117,93, -58472,74, 0,00, 0,00, 0,00, 0,00, 0,00, -0,00, -0,01, 1,00
90, 0,00, 18598,75, -82404,13, 0,00, 0,00, 0,00, 0,00, 0,00, -0,00, -0,01, 1,00
91, 0,00, 288,76, -47462,86, 0,00, 0,00, 0,00, 0,00, 0,00, -0,00, -0,01, 1,00
92, 0,00, -12821,14, -1956,25, 0,00, 0,00, 0,00, 0,00, 0,00, -0,00, -0,01, 1,00
93, 0,00, -1811,09, -9998,14, 0,00, 0,00, 0,00, 0,00, 0,00, -0,00, -0,02, 1,01
94, 0,00, 16940,68, -57927,61, 0,00, 0,00, 0,00, 0,00, 0,00, -0,00, -0,02, 1,01
95, 0,00, 18688,79, -82376,62, 0,00, 0,00, 0,00, 0,00, 0,00, -0,00, -0,02, 1,01
96, 0,00, 502,15, -47795,65, 0,00, 0,00, 0,00, 0,00, 0,00, -0,00, -0,02, 1,01
97, 0,00, -12737,07, -2300,82, 0,00, 0,00, 0,00, 0,00, 0,00, -0,00, -0,02, 1,01
98, 0,00, -1948,49, -9779,80, 0,00, 0,00, 0,00, 0,00, 0,00, 0,00, -0,02, 1,00
99, 0,00, 16831,98, -57566,22, 0,00, 0,00, 0,00, 0,00, 0,00, 0,00, -0,02, 1,00
100, 0,00, 18827,46, -82464,57, 0,00, 0,00, 0,00, 0,00, 0,00, 0,00, -0,02, 1,00
101, 0,00, 678,06, -48255,56, 0,00, 0,00, 0,00, 0,00, 0,00, 0,00, -0,02, 1,00
102, 0,00, -12700,69, -2534,02, 0,00, 0,00, 0,00, 0,00, 0,00, 0,00, -0,02, 1,00
103, 0,00, -2087,18, -9510,29, 0,00, 0,00, 0,00, 0,00, 0,00, 0,01, -0,01, 1,01
104, 0,00, 16704,31, -57145,79, 0,00, 0,00, 0,00, 0,00, 0,00, 0,01, -0,01, 1,01
105, 0,00, 18891,09, -82591,95, 0,00, 0,00, 0,00, 0,00, 0,00, 0,01, -0,01, 1,01
106, 0,00, 824,96, -48746,34, 0,00, 0,00, 0,00, 0,00, 0,00, 0,01, -0,01, 1,01
107, 0,00, -12702,38, -2723,18, 0,00, 0,00, 0,00, 0,00, 0,00, 0,01, -0,01, 1,01
108, 0,00, -2253,30, -9112,63, 0,00, 0,00, 0,00, 0,00, 0,00, 0,01, -0,02, 1,01
109, 0,00, 16587,59, -56646,83, 0,00, 0,00, 0,00, 0,00, 0,00, 0,01, -0,02, 1,01
110, 0,00, 19033,16, -82519,48, 0,00, 0,00, 0,00, 0,00, 0,00, 0,01, -0,02, 1,01
111, 0,00, 1045,15, -49212,01, 0,00, 0,00, 0,00, 0,00, 0,00, 0,01, -0,02, 1,01
112, 0,00, -12664,03, -3016,50, 0,00, 0,00, 0,00, 0,00, 0,00, 0,01, -0,02, 1,01
113, 0,00, -2408,53, -8852,59, 0,00, 0,00, 0,00, 0,00, 0,00, 0,01, -0,02, 1,01
114, 0,00, 16479,65, -56283,50, 0,00, 0,00, 0,00, 0,00, 0,00, 0,01, -0,02, 1,01
115, 0,00, 19147,80, -82664,48, 0,00, 0,00, 0,00, 0,00, 0,00, 0,01, -0,02, 1,01
116, 0,00, 1192,29, -49584,73, 0,00, 0,00, 0,00, 0,00, 0,00, 0,01, -0,02, 1,01
117, 0,00, -12670,09, -3249,36, 0,00, 0,00, 0,00, 0,00, 0,00, 0,01, -0,02, 1,01
118, 0,00, -2614,84, -8527,44, 0,00, 0,00, 0,00, 0,00, 0,00, 0,00, -0,02, 1,01
119, 0,00, 16349,16, -55820,66, 0,00, 0,00, 0,00, 0,00, 0,00, 0,00, -0,02, 1,01
120, 0,00, 19265,55, -82741,84, 0,00, 0,00, 0,00, 0,00, 0,00, 0,00, -0,02, 1,01
121, 0,00, 1383,10, -50019,56, 0,00, 0,00, 0,00, 0,00, 0,00, 0,00, -0,02, 1,01
122, 0,00, -12651,62, -3484,91, 0,00, 0,00, 0,00, 0,00, 0,00, 0,00, -0,02, 1,01
123, 0,00, -2790,41, -8240,13, 0,00, 0,00, 0,00, 0,00, 0,00, 0,00, -0,02, 1,01
124, 0,00, 16173,70, -55333,69, 0,00, 0,00, 0,00, 0,00, 0,00, 0,00, -0,02, 1,01
125, 0,00, 19305,18, -82658,07, 0,00, 0,00, 0,00, 0,00, 0,00, 0,00, -0,02, 1,01
126, 0,00, 1539,14, -50393,73, 0,00, 0,00, 0,00, 0,00, 0,00, 0,00, -0,02, 1,01
127, 0,00, -12613,83, -3746,26, 0,00, 0,00, 0,00, 0,00, 0,00, 0,00, -0,02, 1,01
128, 0,00, -2953,87, -7884,71, 0,00, 0,00, 0,00, 0,00, 0,00, -0,00, -0,01, 1,01
129, 0,00, 16105,46, -54950,22, 0,00, 0,00, 0,00, 0,00, 0,00, -0,00, -0,01, 1,01
130, 0,00, 19451,20, -82771,50, 0,00, 0,00, 0,00, 0,00, 0,00, -0,00, -0,01, 1,01
131, 0,00, 1741,47, -50833,88, 0,00, 0,00, 0,00, 0,00, 0,00, -0,00, -0,01, 1,01
132, 0,00, -12520,15, -4065,16, 0,00, 0,00, 0,00, 0,00, 0,00, -0,00, -0,01, 1,01
133, 0,00, -3069,81, -7696,17, 0,00, 0,00, 0,00, 0,00, 0,00, 0,00, -0,01, 1,01
134, 0,00, 15923,00, -54600,79, 0,00, 0,00, 0,00, 0,00, 0,00, 0,00, -0,01, 1,01
135, 0,00, 19462,22, -82715,89, 0,00, 0,00, 0,00, 0,00, 0,00, 0,00, -0,01, 1,01
136, 0,00, 1889,42, -51147,27, 0,00, 0,00, 0,00, 0,00, 0,00, 0,00, -0,01, 1,01
137, 0,00, -12490,51, -4220,28, 0,00, 0,00, 0,00, 0,00, 0,00, 0,00, -0,01, 1,01
138, 0,00, -3212,28, -7399,81, 0,00, 0,00, 0,00, 0,00, 0,00, 0,00, -0,01, 1,00
139, 0,00, 15805,90, -54080,80, 0,00, 0,00, 0,00, 0,00, 0,00, 0,00, -0,01, 1,00
140, 0,00, 19589,83, -82772,51, 0,00, 0,00, 0,00, 0,00, 0,00, 0,00, -0,01, 1,00
141, 0,00, 2033,54, -51504,79, 0,00, 0,00, 0,00, 0,00, 0,00, 0,00, -0,01, 1,00
142, 0,00, -12510,65, -4418,58, 0,00, 0,00, 0,00, 0,00, 0,00, 0,00, -0,01, 1,00
143, 0,00, -3465,26, -7026,43, 0,00, 0,00, 0,00, 0,00, 0,00, -0,00, -0,01, 1,01
144, 0,00, 15652,84, -53662,78, 0,00, 0,00, 0,00, 0,00, 0,00, -0,00, -0,01, 1,01
145, 0,00, 19784,51, -82885,43, 0,00, 0,00, 0,00, 0,00, 0,00, -0,00, -0,01, 1,01
146, 0,00, 2280,95, -52026,01, 0,00, 0,00, 0,00, 0,00, 0,00, -0,00, -0,01, 1,01
147, 0,00, -12491,00, -4537,40, 0,00, 0,00, 0,00, 0,00, 0,00, -0,00, -0,01, 1,01
148, 0,00, -3502,38, -6815,47, 0,00, 0,00, 0,00, 0,00, 0,00, 0,00, -0,02, 1,01
149, 0,00, 15597,90, -53355,67, 0,00, 0,00, 0,00, 0,00, 0,00, 0,00, -0,02, 1,01
150, 0,00, 19828,43, -82952,35, 0,00, 0,00, 0,00, 0,00, 0,00, 0,00, -0,02, 1,01
151, 0,00, 2386,90, -52512,29, 0,00, 0,00, 0,00, 0,00, 0,00, 0,00, -0,02, 1,01
152, 0,00, -12436,80, -5021,72, 0,00, 0,00, 0,00, 0,00, 0,00, 0,00, -0,02, 1,01
153, 0,00, -3690,03, -6520,96, 0,00, 0,00, 0,00, 0,00, 0,00, 0,00, -0,02, 1,01
154, 0,00, 15447,07, -52974,71, 0,00, 0,00, 0,00, 0,00, 0,00, 0,00, -0,02, 1,01
155, 0,00, 19859,39, -82856,62, 0,00, 0,00, 0,00, 0,00, 0,00, 0,00, -0,02, 1,01
156, 0,00, 2493,43, -52629,57, 0,00, 0,00, 0,00, 0,00, 0,00, 0,00, -0,02, 1,01
157, 0,00, -12448,49, -4970,60, 0,00, 0,00, 0,00, 0,00, 0,00, 0,00, -0,02, 1,01
158, 0,00, -3839,22, -6218,90, 0,00, 0,00, 0,00, 0,00, 0,00, 0,00, -0,02, 1,01
159, 0,00, 15272,92, -52464,44, 0,00, 0,00, 0,00, 0,00, 0,00, 0,00, -0,02, 1,01
160, 0,00, 19965,70, -82852,08, 0,00, 0,00, 0,00, 0,00, 0,00, 0,00, -0,02, 1,01
161, 0,00, 2786,01, -53219,30, 0,00, 0,00, 0,00, 0,00, 0,00, 0,00, -0,02, 1,01
162, 0,00, -12305,77, -5490,35, 0,00, 0,00, 0,00, 0,00, 0,00, 0,00, -0,02, 1,01
163, 0,00, -3970,12, -6005,38, 0,00, 0,00, 0,00, 0,00, 0,00, 0,00, -0,01, 1,01
164, 0,00, 15190,22, -52133,81, 0,00, 0,00, 0,00, 0,00, 0,00, 0,00, -0,01, 1,01
165, 0,00, 20023,43, -82986,75, 0,00, 0,00, 0,00, 0,00, 0,00, 0,00, -0,01, 1,01
166, 0,00, 2884,14, -53675,12, 0,00, 0,00, 0,00, 0,00, 0,00, 0,00, -0,01, 1,01
167, 0,00, -12362,21, -5714,36, 0,00, 0,00, 0,00, 0,00, 0,00, 0,00, -0,01, 1,01
168, 0,00, -4191,87, -5710,76, 0,00, 0,00, 0,00, 0,00, 0,00, 0,00, -0,01, 1,01
169, 0,00, 14980,90, -51458,21, 0,00, 0,00, 0,00, 0,00, 0,00, 0,00, -0,01, 1,01
170, 0,00, 20084,54, -82769,98, 0,00, 0,00, 0,00, 0,00, 0,00, 0,00, -0,01, 1,01
171, 0,00, 3040,15, -53944,14, 0,00, 0,00, 0,00, 0,00, 0,00, 0,00, -0,01, 1,01
172, 0,00, -12253,20, -5977,28, 0,00, 0,00, 0,00, 0,00, 0,00, 0,00, -0,01, 1,01
173, 0,00, -4285,14, -5461,74, 0,00, 0,00, 0,00, 0,00, 0,00, 0,00, -0,01, 1,01
174, 0,00, 14867,55, -51229,73, 0,00, 0,00, 0,00, 0,00, 0,00, 0,00, -0,01, 1,01
175, 0,00, 20167,93, -82948,64, 0,00, 0,00, 0,00, 0,00, 0,00, 0,00, -0,01, 1,01
176, 0,00, 3263,73, -54467,40, 0,00, 0,00, 0,00, 0,00, 0,00, 0,00, -0,01, 1,01
177, 0,00, -12218,29, -6288,71, 0,00, 0,00, 0,00, 0,00, 0,00, 0,00, -0,01, 1,01
178, 0,00, -4486,55, -5254,38, 0,00, 0,00, 0,00, 0,00, 0,00, 0,00, -0,01, 1,02
179, 0,00, 14641,82, -50698,36, 0,00, 0,00, 0,00, 0,00, 0,00, 0,00, -0,01, 1,02
180, 0,00, 20204,84, -82893,03, 0,00, 0,00, 0,00, 0,00, 0,00, 0,00, -0,01, 1,02
181, 0,00, 3410,45, -54965,78, 0,00, 0,00, 0,00, 0,00, 0,00, 0,00, -0,01, 1,02
182, 0,00, -12214,07, -6665,22, 0,00, 0,00, 0,00, 0,00, 0,00, 0,00, -0,01, 1,02
183, 0,00, -4684,19, -4881,87, 0,00, 0,00, 0,00, 0,00, 0,00, 0,00, -0,01, 1,01
184, 0,00, 14502,06, -50202,89, 0,00, 0,00, 0,00, 0,00, 0,00, 0,00, -0,01, 1,01
185, 0,00, 20261,56, -82786,61, 0,00, 0,00, 0,00, 0,00, 0,00, 0,00, -0,01, 1,01
186, 0,00, 3567,18, -55258,56, 0,00, 0,00, 0,00, 0,00, 0,00, 0,00, -0,01, 1,01
187, 0,00, -12169,81, -6890,19, 0,00, 0,00, 0,00, 0,00, 0,00, 0,00, -0,01, 1,01
188, 0,00, -4833,68, -4688,61, 0,00, 0,00, 0,00, 0,00, 0,00, -0,00, -0,01, 1,01
189, 0,00, 14375,43, -49774,47, 0,00, 0,00, 0,00, 0,00, 0,00, -0,00, -0,01, 1,01
190, 0,00, 20375,74, -82803,73, 0,00, 0,00, 0,00, 0,00, 0,00, -0,00, -0,01, 1,01
191, 0,00, 3779,97, -55762,10, 0,00, 0,00, 0,00, 0,00, 0,00, -0,00, -0,01, 1,01
192, 0,00, -12009,97, -7546,19, 0,00, 0,00, 0,00, 0,00, 0,00, -0,00, -0,01, 1,01
193, 0,00, -4976,59, -4551,22, 0,00, 0,00, 0,00, 0,00, 0,00, 0,00, -0,02, 1,01
194, 0,00, 14233,46, -49424,22, 0,00, 0,00, 0,00, 0,00, 0,00, 0,00, -0,02, 1,01
195, 0,00, 20429,16, -82880,80, 0,00, 0,00, 0,00, 0,00, 0,00, 0,00, -0,02, 1,01
196, 0,00, 3906,28, -56206,01, 0,00, 0,00, 0,00, 0,00, 0,00, 0,00, -0,02, 1,01
197, 0,00, -12027,41, -7778,03, 0,00, 0,00, 0,00, 0,00, 0,00, 0,00, -0,02, 1,01
198, 0,00, -5105,99, -4350,90, 0,00, 0,00, 0,00, 0,00, 0,00, 0,00, -0,02, 1,01
199, 0,00, 14079,43, -49018,04, 0,00, 0,00, 0,00, 0,00, 0,00, 0,00, -0,02, 1,01
200, 0,00, 20471,98, -82775,70, 0,00, 0,00, 0,00, 0,00, 0,00, 0,00, -0,02, 1,01
201, 0,00, 4084,42, -56566,59, 0,00, 0,00, 0,00, 0,00, 0,00, 0,00, -0,02, 1,01
202, 0,00, -11924,48, -8172,18, 0,00, 0,00, 0,00, 0,00, 0,00, 0,00, -0,02, 1,01
203, 0,00, -5305,88, -4022,02, 0,00, 0,00, 0,00, 0,00, 0,00, 0,01, -0,02, 1,01
204, 0,00, 13882,29, -48452,12, 0,00, 0,00, 0,00, 0,00, 0,00, 0,01, -0,02, 1,01
205, 0,00, 20487,12, -82660,48, 0,00, 0,00, 0,00, 0,00, 0,00, 0,01, -0,02, 1,01
206, 0,00, 4218,13, -56894,06, 0,00, 0,00, 0,00, 0,00, 0,00, 0,01, -0,02, 1,01
207, 0,00, -11863,90, -8415,57, 0,00, 0,00, 0,00, 0,00, 0,00, 0,01, -0,02, 1,01
208, 0,00, -5494,46, -3753,35, 0,00, 0,00, 0,00, 0,00, 0,00, 0,00, -0,01, 1,01
209, 0,00, 13763,67, -48031,91, 0,00, 0,00, 0,00, 0,00, 0,00, 0,00, -0,01, 1,01
210, 0,00, 20579,12, -82690,03, 0,00, 0,00, 0,00, 0,00, 0,00, 0,00, -0,01, 1,01
211, 0,00, 4431,61, -57366,36, 0,00, 0,00, 0,00, 0,00, 0,00, 0,00, -0,01, 1,01
212, 0,00, -11770,96, -8727,71, 0,00, 0,00, 0,00, 0,00, 0,00, 0,00, -0,01, 1,01
213, 0,00, -5567,13, -3604,58, 0,00, 0,00, 0,00, 0,00, 0,00, -0,01, -0,01, 1,02
214, 0,00, 13636,64, -47615,34, 0,00, 0,00, 0,00, 0,00, 0,00, -0,01, -0,01, 1,02
215, 0,00, 20615,88, -82564,08, 0,00, 0,00, 0,00, 0,00, 0,00, -0,01, -0,01, 1,02
216, 0,00, 4562,50, -57659,21, 0,00, 0,00, 0,00, 0,00, 0,00, -0,01, -0,01, 1,02
217, 0,00, -11772,91, -8983,21, 0,00, 0,00, 0,00, 0,00, 0,00, -0,01, -0,01, 1,02
218, 0,00, -5769,12, -3303,65, 0,00, 0,00, 0,00, 0,00, 0,00, -0,01, -0,01, 1,01
219, 0,00, 13429,33, -47203,91, 0,00, 0,00, 0,00, 0,00, 0,00, -0,01, -0,01, 1,01
220, 0,00, 20665,64, -82514,50, 0,00, 0,00, 0,00, 0,00, 0,00, -0,01, -0,01, 1,01
221, 0,00, 4746,62, -58031,88, 0,00, 0,00, 0,00, 0,00, 0,00, -0,01, -0,01, 1,01
222, 0,00, -11704,25, -9347,07, 0,00, 0,00, 0,00, 0,00, 0,00, -0,01, -0,01, 1,01
223, 0,00, -5919,14, -3057,67, 0,00, 0,00, 0,00, 0,00, 0,00, -0,01, -0,02, 1,00
224, 0,00, 13303,40, -46711,10, 0,00, 0,00, 0,00, 0,00, 0,00, -0,01, -0,02, 1,00
225, 0,00, 20765,53, -82564,41, 0,00, 0,00, 0,00, 0,00, 0,00, -0,01, -0,02, 1,00
226, 0,00, 4954,17, -58579,45, 0,00, 0,00, 0,00, 0,00, 0,00, -0,01, -0,02, 1,00
227, 0,00, -11584,44, -9832,58, 0,00, 0,00, 0,00, 0,00, 0,00, -0,01, -0,02, 1,00
228, 0,00, -6024,69, -2961,40, 0,00, 0,00, 0,00, 0,00, 0,00, 0,00, -0,02, 1,01
229, 0,00, 13172,96, -46331,54, 0,00, 0,00, 0,00, 0,00, 0,00, 0,00, -0,02, 1,01
230, 0,00, 20799,33, -82473,02, 0,00, 0,00, 0,00, 0,00, 0,00, 0,00, -0,02, 1,01
231, 0,00, 5074,65, -58892,96, 0,00, 0,00, 0,00, 0,00, 0,00, 0,00, -0,02, 1,01
232, 0,00, -11554,15, -10122,10, 0,00, 0,00, 0,00, 0,00, 0,00, 0,00, -0,02, 1,01
233, 0,00, -6240,47, -2638,56, 0,00, 0,00, 0,00, 0,00, 0,00, 0,00, -0,02, 1,01
234, 0,00, 12965,46, -45767,88, 0,00, 0,00, 0,00, 0,00, 0,00, 0,00, -0,02, 1,01
235, 0,00, 20812,74, -82239,64, 0,00, 0,00, 0,00, 0,00, 0,00, 0,00, -0,02, 1,01
236, 0,00, 5290,72, -59225,55, 0,00, 0,00, 0,00, 0,00, 0,00, 0,00, -0,02, 1,01
237, 0,00, -11409,96, -10560,42, 0,00, 0,00, 0,00, 0,00, 0,00, 0,00, -0,02, 1,01
238, 0,00, -6317,47, -2462,54, 0,00, 0,00, 0,00, 0,00, 0,00, 0,01, -0,02, 1,00
239, 0,00, 12887,23, -45422,41, 0,00, 0,00, 0,00, 0,00, 0,00, 0,01, -0,02, 1,00
240, 0,00, 20909,81, -82341,68, 0,00, 0,00, 0,00, 0,00, 0,00, 0,01, -0,02, 1,00
241, 0,00, 5442,92, -59715,41, 0,00, 0,00, 0,00, 0,00, 0,00, 0,01, -0,02, 1,00
242, 0,00, -11399,52, -10778,75, 0,00, 0,00, 0,00, 0,00, 0,00, 0,01, -0,02, 1,00
243, 0,00, -6523,18, -2146,15, 0,00, 0,00, 0,00, 0,00, 0,00, 0,00, -0,01, 1,01
244, 0,00, 12681,17, -44890,55, 0,00, 0,00, 0,00, 0,00, 0,00, 0,00, -0,01, 1,01
245, 0,00, 20912,25, -82147,40, 0,00, 0,00, 0,00, 0,00, 0,00, 0,00, -0,01, 1,01
246, 0,00, 5586,84, -59977,42, 0,00, 0,00, 0,00, 0,00, 0,00, 0,00, -0,01, 1,01
247, 0,00, -11315,77, -11094,00, 0,00, 0,00, 0,00, 0,00, 0,00, 0,00, -0,01, 1,01
248, 0,00, -6661,42, -1956,60, 0,00, 0,00, 0,00, 0,00, 0,00, 0,00, -0,01, 1,01
249, 0,00, 12515,99, -44410,72, 0,00, 0,00, 0,00, 0,00, 0,00, 0,00, -0,01, 1,01
250, 0,00, 20956,97, -82027,28, 0,00, 0,00, 0,00, 0,00, 0,00, 0,00, -0,01, 1,01
251, 0,00, 5780,92, -60379,19, 0,00, 0,00, 0,00, 0,00, 0,00, 0,00, -0,01, 1,01
252, 0,00, -11290,96, -11416,71, 0,00, 0,00, 0,00, 0,00, 0,00, 0,00, -0,01, 1,01
253, 0,00, -6822,60, -1818,34, 0,00, 0,00, 0,00, 0,00, 0,00, -0,00, -0,01, 1,01
254, 0,00, 12363,31, -44023,75, 0,00, 0,00, 0,00, 0,00, 0,00, -0,00, -0,01, 1,01
255, 0,00, 20986,86, -81962,03, 0,00, 0,00, 0,00, 0,00, 0,00, -0,00, -0,01, 1,01
0, 0,00, 6020,26, -60867,78, 0,00, 0,00, 0,00, 0,00, 0,00, -0,00, -0,01, 1,01
1, 0,00, -11134,81, -11871,21, 0,00, 0,00, 0,00, 0,00, 0,00, -0,00, -0,01, 1,01
2, 0,00, -6909,50, -1695,89, 0,00, 0,00, 0,00, 0,00, 0,00, 0,00, -0,01, 1,01
3, 0,00, 12224,26, -43660,71, 0,00, 0,00, 0,00, 0,00, 0,00, 0,00, -0,01, 1,01
4, 0,00, 21048,06, -81769,92, 0,00, 0,00, 0,00, 0,00, 0,00, 0,00, -0,01, 1,01
5, 0,00, 6192,19, -61166,39, 0,00, 0,00, 0,00, 0,00, 0,00, 0,00, -0,01, 1,01
6, 0,00, -11087,78, -12094,86, 0,00, 0,00, 0,00, 0,00, 0,00, 0,00, -0,01, 1,01
7, 0,00, -7064,81, -1349,13, 0,00, 0,00, 0,00, 0,00, 0,00, 0,00, -0,01, 1,01
8, 0,00, 12064,60, -43138,73, 0,00, 0,00, 0,00, 0,00, 0,00, 0,00, -0,01, 1,01
9, 0,00, 21102,97, -81756,35, 0,00, 0,00, 0,00, 0,00, 0,00, 0,00, -0,01, 1,01
10, 0,00, 6295,79, -61463,16, 0,00, 0,00, 0,00, 0,00, 0,00, 0,00, -0,01, 1,01
11, 0,00, -11077,97, -12220,77, 0,00, 0,00, 0,00, 0,00, 0,00, 0,00, -0,01, 1,01
12, 0,00, -7149,03, -1174,11, 0,00, 0,00, 0,00, 0,00, 0,00, 0,00, -0,01, 1,01
13, 0,00, 11951,90, -42755,96, 0,00, 0,00, 0,00, 0,00, 0,00, 0,00, -0,01, 1,01
14, 0,00, 21169,45, -81751,03, 0,00, 0,00, 0,00, 0,00, 0,00, 0,00, -0,01, 1,01
15, 0,00, 6517,59, -62030,45, 0,00, 0,00, 0,00, 0,00, 0,00, 0,00, -0,01, 1,01
16, 0,00, -10903,49, -12940,41, 0,00, 0,00, 0,00, 0,00, 0,00, 0,00, -0,01, 1,01
17, 0,00, -7311,81, -1081,65, 0,00, 0,00, 0,00, 0,00, 0,00, 0,00, -0,01, 1,01
18, 0,00, 11790,99, -42410,24, 0,00, 0,00, 0,00, 0,00, 0,00, 0,00, -0,01, 1,01
19, 0,00, 21202,95, -81630,63, 0,00, 0,00, 0,00, 0,00, 0,00, 0,00, -0,01, 1,01
20, 0,00, 6647,25, -62243,73, 0,00, 0,00, 0,00, 0,00, 0,00, 0,00, -0,01, 1,01
21, 0,00, -10928,24, -12908,56, 0,00, 0,00, 0,00, 0,00, 0,00, 0,00, -0,01, 1,01
22, 0,00, -7454,55, -750,50, 0,00, 0,00, 0,00, 0,00, 0,00, 0,00, -0,01, 1,01
23, 0,00, 11629,63, -41823,62, 0,00, 0,00, 0,00, 0,00, 0,00, 0,00, -0,02, 1,00
24, 0,00, 21227,09, -81443,27, 0,00, 0,00, 0,00, 0,00, 0,00, 0,00, -0,02, 1,00
25, 0,00, 6839,72, -62701,47, 0,00, 0,00, 0,00, 0,00, 0,00, 0,00, -0,02, 1,00
26, 0,00, -10693,32, -13708,86, 0,00, 0,00, 0,00, 0,00, 0,00, 0,00, -0,02, 1,00
27, 0,00, -7541,01, -798,69, 0,00, 0,00, 0,00, 0,00, 0,00, 0,00, -0,02, 1,00
28, 0,00, 11522,53, -41585,62, 0,00, 0,00, 0,00, 0,00, 0,00, -0,00, -0,02, 1,01
29, 0,00, 21304,83, -81513,14, 0,00, 0,00, 0,00, 0,00, 0,00, -0,00, -0,02, 1,01
30, 0,00, 7026,40, -63141,29, 0,00, 0,00, 0,00, 0,00, 0,00, -0,00, -0,02, 1,01
31, 0,00, -10686,23, -13925,49, 0,00, 0,00, 0,00, 0,00, 0,00, -0,00, -0,02, 1,01
32, 0,00, -7691,10, -529,87, 0,00, 0,00, 0,00, 0,00, 0,00, -0,00, -0,02, 1,01
33, 0,00, 11321,69, -41042,41, 0,00, 0,00, 0,00, 0,00, 0,00, -0,00, -0,02, 1,01
34, 0,00, 21279,29, -81301,00, 0,00, 0,00, 0,00, 0,00, 0,00, -0,00, -0,02, 1,01
35, 0,00, 7190,11, -63479,46, 0,00, 0,00, 0,00, 0,00, 0,00, -0,00, -0,02, 1,01
36, 0,00, -10494,52, -14484,76, 0,00, 0,00, 0,00, 0,00, 0,00, -0,00, -0,02, 1,01
37, 0,00, -7886,92, -387,89, 0,00, 0,00, 0,00, 0,00, 0,00, -0,00, -0,02, 1,01
38, 0,00, 11070,84, -40458,64, 0,00, 0,00, 0,00, 0,00, 0,00, -0,01, -0,02, 1,01
39, 0,00, 21296,50, -81013,80, 0,00, 0,00, 0,00, 0,00, 0,00, -0,01, -0,02, 1,01
40, 0,00, 7315,30, -63759,15, 0,00, 0,00, 0,00, 0,00, 0,00, -0,01, -0,02, 1,01
41, 0,00, -10500,07, -14750,16, 0,00, 0,00, 0,00, 0,00, 0,00, -0,01, -0,02, 1,01
42, 0,00, -7935,03, -200,16, 0,00, 0,00, 0,00, 0,00, 0,00, -0,01, -0,02, 1,01
43, 0,00, 11091,14, -40096,32, 0,00, 0,00, 0,00, 0,00, 0,00, -0,00, -0,02, 1,01
44, 0,00, 21395,00, -80922,30, 0,00, 0,00, 0,00, 0,00, 0,00, -0,00, -0,02, 1,01
45, 0,00, 7566,51, -64167,77, 0,00, 0,00, 0,00, 0,00, 0,00, -0,00, -0,02, 1,01
46, 0,00, -10338,67, -15163,83, 0,00, 0,00, 0,00, 0,00, 0,00, -0,00, -0,02, 1,01
47, 0,00, -8117,68, -20,94, 0,00, 0,00, 0,00, 0,00, 0,00, -0,00, -0,02, 1,01
48, 0,00, 10815,70, -39577,20, 0,00, 0,00, 0,00, 0,00, 0,00, 0,00, -0,01, 1,01
49, 0,00, 21337,51, -80679,71, 0,00, 0,00, 0,00, 0,00, 0,00, 0,00, -0,01, 1,01
50, 0,00, 7711,31, -64468,11, 0,00, 0,00, 0,00, 0,00, 0,00, 0,00, -0,01, 1,01
51, 0,00, -10166,44, -15712,76, 0,00, 0,00, 0,00, 0,00, 0,00, 0,00, -0,01, 1,01
52, 0,00, -8210,71, 25,37, 0,00, 0,00, 0,00, 0,00, 0,00, 0,00, -0,01, 1,01
53, 0,00, 10672,02, -39201,89, 0,00, 0,00, 0,00, 0,00, 0,00, 0,00, -0,01, 1,01
54, 0,00, 21317,15, -80533,06, 0,00, 0,00, 0,00, 0,00, 0,00, 0,00, -0,01, 1,01
55, 0,00, 7838,29, -64752,04, 0,00, 0,00, 0,00, 0,00, 0,00, 0,00, -0,01, 1,01
56, 0,00, -10108,53, -15964,71, 0,00, 0,00, 0,00, 0,00, 0,00, 0,00, -0,01, 1,01
57, 0,00, -8408,97, 266,81, 0,00, 0,00, 0,00, 0,00, 0,00, 0,00, -0,01, 1,01
58, 0,00, 10475,44, -38701,39, 0,00, 0,00, 0,00, 0,00, 0,00, 0,00, -0,02, 1,01
59, 0,00, 21402,15, -80429,80, 0,00, 0,00, 0,00, 0,00, 0,00, 0,00, -0,02, 1,01
60, 0,00, 8061,96, -65203,21, 0,00, 0,00, 0,00, 0,00, 0,00, 0,00, -0,02, 1,01
61, 0,00, -9983,12, -16397,35, 0,00, 0,00, 0,00, 0,00, 0,00, 0,00, -0,02, 1,01
62, 0,00, -8504,41, 404,21, 0,00, 0,00, 0,00, 0,00, 0,00, 0,00, -0,02, 1,01
63, 0,00, 10319,33, -38326,02, 0,00, 0,00, 0,00, 0,00, 0,00, 0,00, -0,01, 1,01
64, 0,00, 21402,49, -80304,02, 0,00, 0,00, 0,00, 0,00, 0,00, 0,00, -0,01, 1,01
65, 0,00, 8252,69, -65604,85, 0,00, 0,00, 0,00, 0,00, 0,00, 0,00, -0,01, 1,01
66, 0,00, -9919,48, -16743,18, 0,00, 0,00, 0,00, 0,00, 0,00, 0,00, -0,01, 1,01
67, 0,00, -8602,11, 575,56, 0,00, 0,00, 0,00, 0,00, 0,00, 0,00, -0,01, 1,01
68, 0,00, 10188,44, -37910,21, 0,00, 0,00, 0,00, 0,00, 0,00, 0,00, -0,02, 1,01
69, 0,00, 21418,29, -80166,59, 0,00, 0,00, 0,00, 0,00, 0,00, 0,00, -0,02, 1,01
70, 0,00, 8409,13, -65924,88, 0,00, 0,00, 0,00, 0,00, 0,00, 0,00, -0,02, 1,01
71, 0,00, -9812,01, -17101,86, 0,00, 0,00, 0,00, 0,00, 0,00, 0,00, -0,02, 1,01
72, 0,00, -8725,88, 701,60, 0,00, 0,00, 0,00, 0,00, 0,00, 0,00, -0,02, 1,01
73, 0,00, 10004,55, -37422,38, 0,00, 0,00, 0,00, 0,00, 0,00, 0,00, -0,02, 1,01
74, 0,00, 21406,94, -79931,49, 0,00, 0,00, 0,00, 0,00, 0,00, 0,00, -0,02, 1,01
75, 0,00, 8547,64, -66215,72, 0,00, 0,00, 0,00, 0,00, 0,00, 0,00, -0,02, 1,01
76, 0,00, -9764,94, -17429,35, 0,00, 0,00, 0,00, 0,00, 0,00, 0,00, -0,02, 1,01
77, 0,00, -8887,97, 887,68, 0,00, 0,00, 0,00, 0,00, 0,00, 0,00, -0,02, 1,01
78, 0,00, 9861,99, -36961,25, 0,00, 0,00, 0,00, 0,00, 0,00, 0,00, -0,01, 1,01
79, 0,00, 21405,06, -79659,65, 0,00, 0,00, 0,00, 0,00, 0,00, 0,00, -0,01, 1,01
80, 0,00, 8739,51, -66566,78, 0,00, 0,00, 0,00, 0,00, 0,00, 0,00, -0,01, 1,01
81, 0,00, -9612,90, -17930,50, 0,00, 0,00, 0,00, 0,00, 0,00, 0,00, -0,01, 1,01
82, 0,00, -8958,85, 934,88, 0,00, 0,00, 0,00, 0,00, 0,00, 0,00, -0,01, 1,01
83, 0,00, 9700,57, -36550,38, 0,00, 0,00, 0,00, 0,00, 0,00, -0,00, -0,01, 1,00
84, 0,00, 21407,90, -79533,67, 0,00, 0,00, 0,00, 0,00, 0,00, -0,00, -0,01, 1,00
85, 0,00, 8917,63, -66957,17, 0,00, 0,00, 0,00, 0,00, 0,00, -0,00, -0,01, 1,00
86, 0,00, -9457,38, -18429,28, 0,00, 0,00, 0,00, 0,00, 0,00, -0,00, -0,01, 1,00
87, 0,00, -9064,17, 949,06, 0,00, 0,00, 0,00, 0,00, 0,00, -0,00, -0,01, 1,00
88, 0,00, 9529,00, -36172,63, 0,00, 0,00, 0,00, 0,00, 0,00, -0,00, -0,01, 1,01
89, 0,00, 21419,25, -79381,75, 0,00, 0,00, 0,00, 0,00, 0,00, -0,00, -0,01, 1,01
90, 0,00, 9059,27, -67272,69, 0,00, 0,00, 0,00, 0,00, 0,00, -0,00, -0,01, 1,01
91, 0,00, -9400,94, -18677,50, 0,00, 0,00, 0,00, 0,00, 0,00, -0,00, -0,01, 1,01
92, 0,00, -9217,61, 1178,67, 0,00, 0,00, 0,00, 0,00, 0,00, -0,00, -0,01, 1,01
93, 0,00, 9336,01, -35717,95, 0,00, 0,00, 0,00, 0,00, 0,00, -0,00, -0,01, 1,01
94, 0,00, 21383,38, -79151,26, 0,00, 0,00, 0,00, 0,00, 0,00, -0,00, -0,01, 1,01
95, 0,00, 9220,59, -67540,02, 0,00, 0,00, 0,00, 0,00, 0,00, -0,00, -0,01, 1,01
96, 0,00, -9305,05, -19015,32, 0,00, 0,00, 0,00, 0,00, 0,00, -0,00, -0,01, 1,01
97, 0,00, -9289,59, 1253,71, 0,00, 0,00, 0,00, 0,00, 0,00, -0,00, -0,01, 1,01
98, 0,00, 9224,70, -35414,68, 0,00, 0,00, 0,00, 0,00, 0,00, 0,00, -0,02, 1,01
99, 0,00, 21449,85, -79124,55, 0,00, 0,00, 0,00, 0,00, 0,00, 0,00, -0,02, 1,01
100, 0,00, 9388,74, -67894,16, 0,00, 0,00, 0,00, 0,00, 0,00, 0,00, -0,02, 1,01
101, 0,00, -9280,35, -19184,88, 0,00, 0,00, 0,00, 0,00, 0,00, 0,00, -0,02, 1,01
102, 0,00, -9415,38, 1496,85, 0,00, 0,00, 0,00, 0,00, 0,00, 0,00, -0,02, 1,01
103, 0,00, 9086,32, -35002,61, 0,00, 0,00, 0,00, 0,00, 0,00, 0,00, -0,02, 1,01
104, 0,00, 21405,66, -78874,81, 0,00, 0,00, 0,00, 0,00, 0,00, 0,00, -0,02, 1,01
105, 0,00, 9556,24, -68232,54, 0,00, 0,00, 0,00, 0,00, 0,00, 0,00, -0,02, 1,01
106, 0,00, -9057,13, -19911,31, 0,00, 0,00, 0,00, 0,00, 0,00, 0,00, -0,02, 1,01
107, 0,00, -9525,75, 1448,59, 0,00, 0,00, 0,00, 0,00, 0,00, 0,00, -0,02, 1,01
108, 0,00, 8866,07, -34504,36, 0,00, 0,00, 0,00, 0,00, 0,00, 0,00, -0,02, 1,01
109, 0,00, 21378,50, -78650,31, 0,00, 0,00, 0,00, 0,00, 0,00, 0,00, -0,02, 1,01
110, 0,00, 9722,00, -68493,19, 0,00, 0,00, 0,00, 0,00, 0,00, 0,00, -0,02, 1,01
111, 0,00, -8980,46, -20159,80, 0,00, 0,00, 0,00, 0,00, 0,00, 0,00, -0,02, 1,01
112, 0,00, -9642,32, 1615,94, 0,00, 0,00, 0,00, 0,00, 0,00, 0,00, -0,02, 1,01
113, 0,00, 8723,08, -34059,05, 0,00, 0,00, 0,00, 0,00, 0,00, 0,01, -0,02, 1,01
114, 0,00, 21423,14, -78417,20, 0,00, 0,00, 0,00, 0,00, 0,00, 0,01, -0,02, 1,01
115, 0,00, 9950,64, -68929,40, 0,00, 0,00, 0,00, 0,00, 0,00, 0,01, -0,02, 1,01
116, 0,00, -8804,13, -20740,43, 0,00, 0,00, 0,00, 0,00, 0,00, 0,01, -0,02, 1,01
117, 0,00, -9759,02, 1616,88, 0,00, 0,00, 0,00, 0,00, 0,00, 0,01, -0,02, 1,01
118, 0,00, 8555,42, -33728,22, 0,00, 0,00, 0,00, 0,00, 0,00, 0,00, -0,01, 1,01
119, 0,00, 21425,40, -78306,79, 0,00, 0,00, 0,00, 0,00, 0,00, 0,00, -0,01, 1,01
120, 0,00, 10094,25, -69230,70, 0,00, 0,00, 0,00, 0,00, 0,00, 0,00, -0,01, 1,01
121, 0,00, -8762,17, -20997,70, 0,00, 0,00, 0,00, 0,00, 0,00, 0,00, -0,01, 1,01
122, 0,00, -9872,94, 1771,64, 0,00, 0,00, 0,00, 0,00, 0,00, 0,00, -0,01, 1,01
123, 0,00, 8358,57, -33217,84, 0,00, 0,00, 0,00, 0,00, 0,00, 0,00, -0,01, 1,01
124, 0,00, 21365,18, -77921,13, 0,00, 0,00, 0,00, 0,00, 0,00, 0,00, -0,01, 1,01
125, 0,00, 10221,43, -69398,12, 0,00, 0,00, 0,00, 0,00, 0,00, 0,00, -0,01, 1,01
126, 0,00, -8616,60, -21355,62, 0,00, 0,00, 0,00, 0,00, 0,00, 0,00, -0,01, 1,01
127, 0,00, -9967,56, 1857,81, 0,00, 0,00, 0,00, 0,00, 0,00, 0,00, -0,01, 1,01
128, 0,00, 8230,38, -32867,17, 0,00, 0,00, 0,00, 0,00, 0,00, 0,00, -0,01, 1,01
129, 0,00, 21397,41, -77787,63, 0,00, 0,00, 0,00, 0,00, 0,00, 0,00, -0,01, 1,01
130, 0,00, 10408,74, -69822,35, 0,00, 0,00, 0,00, 0,00, 0,00, 0,00, -0,01, 1,01
131, 0,00, -8532,06, -21818,74, 0,00, 0,00, 0,00, 0,00, 0,00, 0,00, -0,01, 1,01
132, 0,00, -10074,00, 1863,46, 0,00, 0,00, 0,00, 0,00, 0,00, 0,00, -0,01, 1,01
133, 0,00, 8047,77, -32500,40, 0,00, 0,00, 0,00, 0,00, 0,00, 0,00, -0,02, 1,01
134, 0,00, 21336,88, -77637,46, 0,00, 0,00, 0,00, 0,00, 0,00, 0,00, -0,02, 1,01
135, 0,00, 10553,00, -70185,46, 0,00, 0,00, 0,00, 0,00, 0,00, 0,00, -0,02, 1,01
136, 0,00, -8404,05, -22305,32, 0,00, 0,00, 0,00, 0,00, 0,00, 0,00, -0,02, 1,01
137, 0,00, -10191,70, 1958,44, 0,00, 0,00, 0,00, 0,00, 0,00, 0,00, -0,02, 1,01
138, 0,00, 7856,95, -31957,72, 0,00, 0,00, 0,00, 0,00, 0,00, 0,00, -0,01, 1,00
139, 0,00, 21342,34, -77329,86, 0,00, 0,00, 0,00, 0,00, 0,00, 0,00, -0,01, 1,00
140, 0,00, 10733,26, -70430,05, 0,00, 0,00, 0,00, 0,00, 0,00, 0,00, -0,01, 1,00
141, 0,00, -8289,73, -22608,61, 0,00, 0,00, 0,00, 0,00, 0,00, 0,00, -0,01, 1,00
142, 0,00, -10297,05, 2067,83, 0,00, 0,00, 0,00, 0,00, 0,00, 0,00, -0,01, 1,00
143, 0,00, 7723,96, -31620,12, 0,00, 0,00, 0,00, 0,00, 0,00, 0,00, -0,01, 1,01
144, 0,00, 21304,77, -77087,19, 0,00, 0,00, 0,00, 0,00, 0,00, 0,00, -0,01, 1,01
145, 0,00, 10886,15, -70802,91, 0,00, 0,00, 0,00, 0,00, 0,00, 0,00, -0,01, 1,01
146, 0,00, -8053,65, -23376,10, 0,00, 0,00, 0,00, 0,00, 0,00, 0,00, -0,01, 1,01
147, 0,00, -10359,54, 1916,57, 0,00, 0,00, 0,00, 0,00, 0,00, 0,00, -0,01, 1,01
148, 0,00, 7515,91, -31214,81, 0,00, 0,00, 0,00, 0,00, 0,00, 0,00, -0,01, 1,01
149, 0,00, 21261,94, -76830,32, 0,00, 0,00, 0,00, 0,00, 0,00, 0,00, -0,01, 1,01
150, 0,00, 11057,18, -71036,73, 0,00, 0,00, 0,00, 0,00, 0,00, 0,00, -0,01, 1,01
151, 0,00, -7929,86, -23755,32, 0,00, 0,00, 0,00, 0,00, 0,00, 0,00, -0,01, 1,01
152, 0,00, -10506,55, 1981,62, 0,00, 0,00, 0,00, 0,00, 0,00, 0,00, -0,01, 1,01
153, 0,00, 7313,65, -30728,78, 0,00, 0,00, 0,00, 0,00, 0,00, 0,00, -0,02, 1,01
154, 0,00, 21179,69, -76420,99, 0,00, 0,00, 0,00, 0,00, 0,00, 0,00, -0,02, 1,01
155, 0,00, 11167,74, -71201,21, 0,00, 0,00, 0,00, 0,00, 0,00, 0,00, -0,02, 1,01
156, 0,00, -7820,81, -24078,91, 0,00, 0,00, 0,00, 0,00, 0,00, 0,00, -0,02, 1,01
157, 0,00, -10557,78, 2132,87, 0,00, 0,00, 0,00, 0,00, 0,00, 0,00, -0,02, 1,01
158, 0,00, 7215,55, -30310,06, 0,00, 0,00, 0,00, 0,00, 0,00, 0,00, -0,02, 1,01
159, 0,00, 21200,63, -76196,85, 0,00, 0,00, 0,00, 0,00, 0,00, 0,00, -0,02, 1,01
160, 0,00, 11367,45, -71504,28, 0,00, 0,00, 0,00, 0,00, 0,00, 0,00, -0,02, 1,01
161, 0,00, -7702,61, -24541,59, 0,00, 0,00, 0,00, 0,00, 0,00, 0,00, -0,02, 1,01
162, 0,00, -10696,29, 2011,81, 0,00, 0,00, 0,00, 0,00, 0,00, 0,00, -0,02, 1,01
163, 0,00, 6995,29, -29976,44, 0,00, 0,00, 0,00, 0,00, 0,00, 0,00, -0,01, 1,01
164, 0,00, 21171,66, -76003,13, 0,00, 0,00, 0,00, 0,00, 0,00, 0,00, -0,01, 1,01
165, 0,00, 11557,39, -71882,63, 0,00, 0,00, 0,00, 0,00, 0,00, 0,00, -0,01, 1,01
166, 0,00, -7552,56, -25012,43, 0,00, 0,00, 0,00, 0,00, 0,00, 0,00, -0,01, 1,01
167, 0,00, -10800,79, 2126,25, 0,00, 0,00, 0,00, 0,00, 0,00, 0,00, -0,01, 1,01
168, 0,00, 6779,06, -29493,13, 0,00, 0,00, 0,00, 0,00, 0,00, 0,00, -0,01, 1,01
169, 0,00, 21097,45, -75672,41, 0,00, 0,00, 0,00, 0,00, 0,00, 0,00, -0,01, 1,01
170, 0,00, 11697,72, -72067,03, 0,00, 0,00, 0,00, 0,00, 0,00, 0,00, -0,01, 1,01
171, 0,00, -7450,06, -25297,90, 0,00, 0,00, 0,00, 0,00, 0,00, 0,00, -0,01, 1,01
172, 0,00, -10886,86, 2201,27, 0,00, 0,00, 0,00, 0,00, 0,00, 0,00, -0,01, 1,01
173, 0,00, 6630,76, -29079,84, 0,00, 0,00, 0,00, 0,00, 0,00, 0,00, -0,01, 1,01
174, 0,00, 21072,46, -75409,66, 0,00, 0,00, 0,00, 0,00, 0,00, 0,00, -0,01, 1,01
175, 0,00, 11857,51, -72372,24, 0,00, 0,00, 0,00, 0,00, 0,00, 0,00, -0,01, 1,01
176, 0,00, -7318,61, -25772,66, 0,00, 0,00, 0,00, 0,00, 0,00, 0,00, -0,01, 1,01
177, 0,00, -10963,91, 2220,62, 0,00, 0,00, 0,00, 0,00, 0,00, 0,00, -0,01, 1,01
178, 0,00, 6488,87, -28758,40, 0,00, 0,00, 0,00, 0,00, 0,00, -0,00, -0,01, 1,01
179, 0,00, 21089,23, -75258,14, 0,00, 0,00, 0,00, 0,00, 0,00, -0,00, -0,01, 1,01
180, 0,00, 12040,28, -72704,81, 0,00, 0,00, 0,00, 0,00, 0,00, -0,00, -0,01, 1,01
181, 0,00, -7164,20, -26252,55, 0,00, 0,00, 0,00, 0,00, 0,00, -0,00, -0,01, 1,01
182, 0,00, -11014,92, 2121,58, 0,00, 0,00, 0,00, 0,00, 0,00, -0,00, -0,01, 1,01
183, 0,00, 6331,89, -28401,89, 0,00, 0,00, 0,00, 0,00, 0,00, -0,00, -0,02, 1,01
184, 0,00, 21010,88, -74910,33, 0,00, 0,00, 0,00, 0,00, 0,00, -0,00, -0,02, 1,01
185, 0,00, 12173,97, -72873,97, 0,00, 0,00, 0,00, 0,00, 0,00, -0,00, -0,02, 1,01
186, 0,00, -6989,64, -26656,27, 0,00, 0,00, 0,00, 0,00, 0,00, -0,00, -0,02, 1,01
187, 0,00, -11108,84, 2280,12, 0,00, 0,00, 0,00, 0,00, 0,00, -0,00, -0,02, 1,01
188, 0,00, 6124,44, -27771,75, 0,00, 0,00, 0,00, 0,00, 0,00, 0,00, -0,01, 1,01
189, 0,00, 20982,59, -74577,95, 0,00, 0,00, 0,00, 0,00, 0,00, 0,00, -0,01, 1,01
190, 0,00, 12338,03, -73175,45, 0,00, 0,00, 0,00, 0,00, 0,00, 0,00, -0,01, 1,01
191, 0,00, -6904,77, -27027,75, 0,00, 0,00, 0,00, 0,00, 0,00, 0,00, -0,01, 1,01
192, 0,00, -11220,82, 2281,76, 0,00, 0,00, 0,00, 0,00, 0,00, 0,00, -0,01, 1,01
193, 0,00, 5995,25, -27471,84, 0,00, 0,00, 0,00, 0,00, 0,00, 0,00, -0,02, 1,01
194, 0,00, 20963,86, -74324,09, 0,00, 0,00, 0,00, 0,00, 0,00, 0,00, -0,02, 1,01
195, 0,00, 12531,93, -73504,54, 0,00, 0,00, 0,00, 0,00, 0,00, 0,00, -0,02, 1,01
196, 0,00, -6740,21, -27531,51, 0,00, 0,00, 0,00, 0,00, 0,00, 0,00, -0,02, 1,01
197, 0,00, -11287,83, 2205,87, 0,00, 0,00, 0,00, 0,00, 0,00, 0,00, -0,02, 1,01
198, 0,00, 5836,78, -27143,15, 0,00, 0,00, 0,00, 0,00, 0,00, 0,00, -0,01, 1,02
199, 0,00, 20937,82, -74126,14, 0,00, 0,00, 0,00, 0,00, 0,00, 0,00, -0,01, 1,02
200, 0,00, 12681,04, -73765,65, 0,00, 0,00, 0,00, 0,00, 0,00, 0,00, -0,01, 1,02
201, 0,00, -6638,07, -27868,91, 0,00, 0,00, 0,00, 0,00, 0,00, 0,00, -0,01, 1,02
202, 0,00, -11408,87, 2418,88, 0,00, 0,00, 0,00, 0,00, 0,00, 0,00, -0,01, 1,02
203, 0,00, 5633,02, -26577,92, 0,00, 0,00, 0,00, 0,00, 0,00, 0,00, -0,02, 1,01
204, 0,00, 20854,91, -73707,80, 0,00, 0,00, 0,00, 0,00, 0,00, 0,00, -0,02, 1,01
205, 0,00, 12827,69, -73959,26, 0,00, 0,00, 0,00, 0,00, 0,00, 0,00, -0,02, 1,01
206, 0,00, -6570,05, -28172,85, 0,00, 0,00, 0,00, 0,00, 0,00, 0,00, -0,02, 1,01
207, 0,00, -11478,67, 2454,82, 0,00, 0,00, 0,00, 0,00, 0,00, 0,00, -0,02, 1,01
208, 0,00, 5509,46, -26315,18, 0,00, 0,00, 0,00, 0,00, 0,00, 0,00, -0,01, 1,01
209, 0,00, 20869,24, -73582,92, 0,00, 0,00, 0,00, 0,00, 0,00, 0,00, -0,01, 1,01
210, 0,00, 13077,98, -74338,01, 0,00, 0,00, 0,00, 0,00, 0,00, 0,00, -0,01, 1,01
211, 0,00, -6327,29, -28731,09, 0,00, 0,00, 0,00, 0,00, 0,00, 0,00, -0,01, 1,01
212, 0,00, -11546,04, 2291,79, 0,00, 0,00, 0,00, 0,00, 0,00, 0,00, -0,01, 1,01
213, 0,00, 5294,21, -25950,31, 0,00, 0,00, 0,00, 0,00, 0,00, 0,00, -0,01, 1,02
214, 0,00, 20822,28, -73278,11, 0,00, 0,00, 0,00, 0,00, 0,00, 0,00, -0,01, 1,02
215, 0,00, 13186,23, -74556,41, 0,00, 0,00, 0,00, 0,00, 0,00, 0,00, -0,01, 1,02
216, 0,00, -6286,27, -28942,92, 0,00, 0,00, 0,00, 0,00, 0,00, 0,00, -0,01, 1,02
217, 0,00, -11640,77, 2530,20, 0,00, 0,00, 0,00, 0,00, 0,00, 0,00, -0,01, 1,02
218, 0,00, 5179,50, -25435,10, 0,00, 0,00, 0,00, 0,00, 0,00, 0,00, -0,01, 1,01
219, 0,00, 20755,07, -72887,38, 0,00, 0,00, 0,00, 0,00, 0,00, 0,00, -0,01, 1,01
220, 0,00, 13347,88, -74834,73, 0,00, 0,00, 0,00, 0,00, 0,00, 0,00, -0,01, 1,01
221, 0,00, -6035,53, -29693,60, 0,00, 0,00, 0,00, 0,00, 0,00, 0,00, -0,01, 1,01
222, 0,00, -11668,79, 2224,29, 0,00, 0,00, 0,00, 0,00, 0,00, 0,00, -0,01, 1,01
223, 0,00, 4993,22, -25155,79, 0,00, 0,00, 0,00, 0,00, 0,00, -0,00, -0,01, 1,01
224, 0,00, 20714,46, -72697,39, 0,00, 0,00, 0,00, 0,00, 0,00, -0,00, -0,01, 1,01
225, 0,00, 13489,90, -75068,45, 0,00, 0,00, 0,00, 0,00, 0,00, -0,00, -0,01, 1,01
226, 0,00, -5900,57, -30033,39, 0,00, 0,00, 0,00, 0,00, 0,00, -0,00, -0,01, 1,01
227, 0,00, -11757,93, 2321,72, 0,00, 0,00, 0,00, 0,00, 0,00, -0,00, -0,01, 1,01
228, 0,00, 4825,79, -24731,47, 0,00, 0,00, 0,00, 0,00, 0,00, 0,00, -0,01, 1,01
229, 0,00, 20613,43, -72330,73, 0,00, 0,00, 0,00, 0,00, 0,00, 0,00, -0,01, 1,01
